TITLE,
DATA TYPE,ULTRAVIOLET SPECTRUM
ORIGIN,JASCO
OWNER,
DATE,22/05/13
TIME,11:42:47
SPECTROMETER/DATA SYSTEM,
LOCALE,2057
RESOLUTION,
DELTAX,-0.5
XUNITS,NANOMETERS
YUNITS,ABSORBANCE
FIRSTX,  500.0000
LASTX,  200.0000
NPOINTS,     601
FIRSTY,     0.00973
MAXY,     7.00000
MINY,     0.00680
XYDATA
500.0000,0.00973479
499.5000,0.00969594
499.0000,0.00964568
498.5000,0.00967651
498.0000,0.00970096
497.5000,0.00971469
497.0000,0.00969713
496.5000,0.00968164
496.0000,0.00966134
495.5000,0.00965525
495.0000,0.00967017
494.5000,0.00969075
494.0000,0.0096333
493.5000,0.00962352
493.0000,0.00959592
492.5000,0.00956804
492.0000,0.00955153
491.5000,0.0095774
491.0000,0.00956675
490.5000,0.00949676
490.0000,0.00949986
489.5000,0.00945961
489.0000,0.00945652
488.5000,0.00949055
488.0000,0.00949561
487.5000,0.00947052
487.0000,0.0094774
486.5000,0.00945327
486.0000,0.0094509
485.5000,0.00944797
485.0000,0.00945689
484.5000,0.0094164
484.0000,0.00939373
483.5000,0.0093873
483.0000,0.00934886
482.5000,0.00936353
482.0000,0.00931291
481.5000,0.00930749
481.0000,0.00926073
480.5000,0.00931518
480.0000,0.00927719
479.5000,0.0092362
479.0000,0.00921459
478.5000,0.00916238
478.0000,0.0091887
477.5000,0.00918254
477.0000,0.0091916
476.5000,0.00910672
476.0000,0.00908479
475.5000,0.00907421
475.0000,0.00907477
474.5000,0.009086
474.0000,0.00913032
473.5000,0.00911173
473.0000,0.00906323
472.5000,0.00908091
472.0000,0.00910578
471.5000,0.00910365
471.0000,0.00910035
470.5000,0.0090764
470.0000,0.00902088
469.5000,0.00892467
469.0000,0.008896
468.5000,0.00886227
468.0000,0.00879279
467.5000,0.00878043
467.0000,0.00873831
466.5000,0.00871749
466.0000,0.00866122
465.5000,0.00871461
465.0000,0.00873986
464.5000,0.0087101
464.0000,0.00871397
463.5000,0.00870541
463.0000,0.00870104
462.5000,0.00869076
462.0000,0.00867389
461.5000,0.00865692
461.0000,0.00858623
460.5000,0.00859119
460.0000,0.00857235
459.5000,0.00857385
459.0000,0.00853594
458.5000,0.00849478
458.0000,0.00847562
457.5000,0.00846469
457.0000,0.00849124
456.5000,0.00846578
456.0000,0.00848075
455.5000,0.00843766
455.0000,0.00844921
454.5000,0.00846033
454.0000,0.00844134
453.5000,0.00840746
453.0000,0.00844978
452.5000,0.00842083
452.0000,0.00837711
451.5000,0.00839319
451.0000,0.00839379
450.5000,0.00838305
450.0000,0.00838157
449.5000,0.00840724
449.0000,0.00834659
448.5000,0.00837042
448.0000,0.00834531
447.5000,0.00833019
447.0000,0.00829638
446.5000,0.00827223
446.0000,0.00828112
445.5000,0.00822287
445.0000,0.00823195
444.5000,0.00820223
444.0000,0.00821552
443.5000,0.00819173
443.0000,0.00820506
442.5000,0.00825617
442.0000,0.00825485
441.5000,0.00826004
441.0000,0.00826181
440.5000,0.00823453
440.0000,0.00824802
439.5000,0.00823899
439.0000,0.00826773
438.5000,0.00820099
438.0000,0.00815531
437.5000,0.00818735
437.0000,0.00815791
436.5000,0.00815995
436.0000,0.00817164
435.5000,0.00815769
435.0000,0.0081003
434.5000,0.00808303
434.0000,0.00807678
433.5000,0.00807005
433.0000,0.0080331
432.5000,0.00802124
432.0000,0.00801327
431.5000,0.00799908
431.0000,0.00796105
430.5000,0.00797036
430.0000,0.00795997
429.5000,0.00790438
429.0000,0.00792574
428.5000,0.00791784
428.0000,0.00786944
427.5000,0.0078253
427.0000,0.00782616
426.5000,0.00780012
426.0000,0.00782753
425.5000,0.00783848
425.0000,0.00786114
424.5000,0.00793063
424.0000,0.00794788
423.5000,0.00802874
423.0000,0.00801842
422.5000,0.00802839
422.0000,0.00796669
421.5000,0.00797134
421.0000,0.00795266
420.5000,0.00790288
420.0000,0.00817271
419.5000,0.00819826
419.0000,0.00814664
418.5000,0.00810362
418.0000,0.00808324
417.5000,0.00797747
417.0000,0.0079089
416.5000,0.00785786
416.0000,0.00789075
415.5000,0.00788925
415.0000,0.00788841
414.5000,0.00791875
414.0000,0.00784391
413.5000,0.0078969
413.0000,0.00787917
412.5000,0.00795482
412.0000,0.00785432
411.5000,0.00774207
411.0000,0.00774009
410.5000,0.00767457
410.0000,0.00773614
409.5000,0.00771412
409.0000,0.00769516
408.5000,0.00763998
408.0000,0.00766243
407.5000,0.00770575
407.0000,0.00771259
406.5000,0.00780002
406.0000,0.00780113
405.5000,0.00776563
405.0000,0.00773836
404.5000,0.00772551
404.0000,0.00774564
403.5000,0.00776667
403.0000,0.0077083
402.5000,0.00756142
402.0000,0.00756609
401.5000,0.00762151
401.0000,0.0076666
400.5000,0.00769141
400.0000,0.00767794
399.5000,0.00764832
399.0000,0.00767859
398.5000,0.0076983
398.0000,0.00760572
397.5000,0.00751185
397.0000,0.00744613
396.5000,0.00738764
396.0000,0.0073742
395.5000,0.00737164
395.0000,0.00739466
394.5000,0.00745173
394.0000,0.00749701
393.5000,0.00755391
393.0000,0.00760294
392.5000,0.00756716
392.0000,0.0075814
391.5000,0.00754681
391.0000,0.00752799
390.5000,0.00753347
390.0000,0.00747199
389.5000,0.00738966
389.0000,0.00732606
388.5000,0.00736543
388.0000,0.00729998
387.5000,0.00729934
387.0000,0.00722275
386.5000,0.00717266
386.0000,0.00717086
385.5000,0.00721878
385.0000,0.0073055
384.5000,0.00727921
384.0000,0.00734711
383.5000,0.00735705
383.0000,0.00740043
382.5000,0.00737671
382.0000,0.00742286
381.5000,0.00746371
381.0000,0.00743029
380.5000,0.00746721
380.0000,0.00740525
379.5000,0.00742364
379.0000,0.00745313
378.5000,0.00751758
378.0000,0.0075293
377.5000,0.00746814
377.0000,0.00748142
376.5000,0.00747391
376.0000,0.00754433
375.5000,0.00750948
375.0000,0.00747913
374.5000,0.00750725
374.0000,0.00750707
373.5000,0.00757617
373.0000,0.00757766
372.5000,0.0075754
372.0000,0.00751334
371.5000,0.00747009
371.0000,0.0074813
370.5000,0.00738587
370.0000,0.00765874
369.5000,0.00762251
369.0000,0.00758461
368.5000,0.00762887
368.0000,0.00752235
367.5000,0.00761201
367.0000,0.00745879
366.5000,0.00743066
366.0000,0.0073617
365.5000,0.0073403
365.0000,0.00727437
364.5000,0.0072186
364.0000,0.0072124
363.5000,0.00714971
363.0000,0.00723201
362.5000,0.00720223
362.0000,0.00722074
361.5000,0.00722558
361.0000,0.00725098
360.5000,0.00738489
360.0000,0.00735
359.5000,0.0073004
359.0000,0.00720438
358.5000,0.00715995
358.0000,0.00714912
357.5000,0.00712954
357.0000,0.00714006
356.5000,0.00685824
356.0000,0.00685424
355.5000,0.00688097
355.0000,0.00694788
354.5000,0.00689251
354.0000,0.00684793
353.5000,0.00685295
353.0000,0.00679849
352.5000,0.00686488
352.0000,0.00692369
351.5000,0.00697611
351.0000,0.00693928
350.5000,0.00699647
350.0000,0.00717404
349.5000,0.00715857
349.0000,0.00724414
348.5000,0.00732586
348.0000,0.00742703
347.5000,0.00748051
347.0000,0.0075026
346.5000,0.00747277
346.0000,0.00736019
345.5000,0.00741467
345.0000,0.00740118
344.5000,0.007547
344.0000,0.00758143
343.5000,0.00757727
343.0000,0.00773024
342.5000,0.00796728
342.0000,0.00813946
341.5000,0.00834751
341.0000,0.00839492
340.5000,0.00850491
340.0000,0.012087
339.5000,0.012366
339.0000,0.0117086
338.5000,0.0119473
338.0000,0.0120823
337.5000,0.0124559
337.0000,0.0124779
336.5000,0.0123871
336.0000,0.012171
335.5000,0.0119109
335.0000,0.012853
334.5000,0.0136401
334.0000,0.0139498
333.5000,0.0144078
333.0000,0.0148589
332.5000,0.0150904
332.0000,0.0154029
331.5000,0.0160924
331.0000,0.0167536
330.5000,0.0168956
330.0000,0.0169386
329.5000,0.0173871
329.0000,0.0178137
328.5000,0.0187338
328.0000,0.0189191
327.5000,0.0196247
327.0000,0.0192876
326.5000,0.0199347
326.0000,0.0209347
325.5000,0.0210769
325.0000,0.0216898
324.5000,0.021676
324.0000,0.022856
323.5000,0.0232317
323.0000,0.0240605
322.5000,0.0238167
322.0000,0.0234213
321.5000,0.0236625
321.0000,0.0243809
320.5000,0.0251516
320.0000,0.0252225
319.5000,0.0254921
319.0000,0.0260368
318.5000,0.0270546
318.0000,0.0275236
317.5000,0.0285278
317.0000,0.0285793
316.5000,0.029081
316.0000,0.0294745
315.5000,0.0303156
315.0000,0.0303151
314.5000,0.0310106
314.0000,0.032154
313.5000,0.032647
313.0000,0.033392
312.5000,0.033971
312.0000,0.0349039
311.5000,0.0358771
311.0000,0.036418
310.5000,0.0368177
310.0000,0.0373607
309.5000,0.0378303
309.0000,0.038732
308.5000,0.039403
308.0000,0.0394794
307.5000,0.0396325
307.0000,0.0404252
306.5000,0.0413859
306.0000,0.0417484
305.5000,0.0420011
305.0000,0.0424151
304.5000,0.042742
304.0000,0.0439002
303.5000,0.0440342
303.0000,0.0453063
302.5000,0.0455202
302.0000,0.0467118
301.5000,0.0477232
301.0000,0.0483954
300.5000,0.0492163
300.0000,0.0498499
299.5000,0.0510104
299.0000,0.0515237
298.5000,0.052437
298.0000,0.052817
297.5000,0.0538426
297.0000,0.054594
296.5000,0.0556709
296.0000,0.0564861
295.5000,0.057985
295.0000,0.0589695
294.5000,0.0600791
294.0000,0.0613972
293.5000,0.0626686
293.0000,0.0643138
292.5000,0.0656033
292.0000,0.0674146
291.5000,0.0686206
291.0000,0.0702659
290.5000,0.0721019
290.0000,0.0741932
289.5000,0.0763461
289.0000,0.0782908
288.5000,0.0804522
288.0000,0.0824957
287.5000,0.0848111
287.0000,0.0874152
286.5000,0.0899244
286.0000,0.0917536
285.5000,0.094034
285.0000,0.0958752
284.5000,0.0983149
284.0000,0.100607
283.5000,0.102876
283.0000,0.105397
282.5000,0.107392
282.0000,0.110058
281.5000,0.111913
281.0000,0.114734
280.5000,0.117051
280.0000,0.119504
279.5000,0.122096
279.0000,0.124438
278.5000,0.127317
278.0000,0.129709
277.5000,0.132388
277.0000,0.135154
276.5000,0.137874
276.0000,0.1405
275.5000,0.142556
275.0000,0.145195
274.5000,0.147692
274.0000,0.150387
273.5000,0.153487
273.0000,0.15636
272.5000,0.159267
272.0000,0.16258
271.5000,0.16659
271.0000,0.169875
270.5000,0.173588
270.0000,0.177507
269.5000,0.181159
269.0000,0.185236
268.5000,0.18937
268.0000,0.193285
267.5000,0.197048
267.0000,0.201325
266.5000,0.205895
266.0000,0.210619
265.5000,0.215199
265.0000,0.219571
264.5000,0.224795
264.0000,0.230262
263.5000,0.235589
263.0000,0.240816
262.5000,0.245677
262.0000,0.251361
261.5000,0.257254
261.0000,0.263048
260.5000,0.268903
260.0000,0.275075
259.5000,0.280742
259.0000,0.287065
258.5000,0.293403
258.0000,0.29937
257.5000,0.305248
257.0000,0.311039
256.5000,0.316353
256.0000,0.321269
255.5000,0.326978
255.0000,0.332223
254.5000,0.337617
254.0000,0.342059
253.5000,0.34699
253.0000,0.351665
252.5000,0.356725
252.0000,0.361424
251.5000,0.366181
251.0000,0.370684
250.5000,0.374825
250.0000,0.379064
249.5000,0.382574
249.0000,0.386682
248.5000,0.390078
248.0000,0.39337
247.5000,0.39622
247.0000,0.398985
246.5000,0.401634
246.0000,0.403939
245.5000,0.405813
245.0000,0.407731
244.5000,0.40969
244.0000,0.411247
243.5000,0.413015
243.0000,0.414355
242.5000,0.415481
242.0000,0.417176
241.5000,0.419678
241.0000,0.421299
240.5000,0.422981
240.0000,0.425278
239.5000,0.427225
239.0000,0.429232
238.5000,0.431474
238.0000,0.433355
237.5000,0.435219
237.0000,0.437407
236.5000,0.43875
236.0000,0.44052
235.5000,0.442174
235.0000,0.443607
234.5000,0.445799
234.0000,0.447119
233.5000,0.448838
233.0000,0.450372
232.5000,0.452949
232.0000,0.455224
231.5000,0.458348
231.0000,0.462763
230.5000,0.466627
230.0000,0.473032
229.5000,0.47955
229.0000,0.487583
228.5000,0.496629
228.0000,0.506566
227.5000,0.517893
227.0000,0.530398
226.5000,0.544847
226.0000,0.56089
225.5000,0.57907
225.0000,0.59958
224.5000,0.622211
224.0000,0.648949
223.5000,0.678272
223.0000,0.71064
222.5000,0.74751
222.0000,0.787906
221.5000,0.83438
221.0000,0.884371
220.5000,0.942512
220.0000,1.00505
219.5000,1.07933
219.0000,1.16187
218.5000,1.2566
218.0000,1.3717
217.5000,1.49944
217.0000,1.66849
216.5000,1.88894
216.0000,2.31847
215.5000,7
215.0000,7
214.5000,7
214.0000,7
213.5000,7
213.0000,7
212.5000,7
212.0000,7
211.5000,7
211.0000,7
210.5000,7
210.0000,7
209.5000,7
209.0000,7
208.5000,7
208.0000,7
207.5000,7
207.0000,7
206.5000,7
206.0000,7
205.5000,7
205.0000,7
204.5000,7
204.0000,7
203.5000,7
203.0000,7
202.5000,7
202.0000,7
201.5000,7
201.0000,7
200.5000,7
200.0000,7

##### Extended Information
[Comments]
Sample name
Comment
User
Division
Company,Glasgow University

[Detailed Information]
Creation date,13/05/2022 11:42

Data array type,Linear data array
Horizontal axis,Wavelength [nm]
Vertical axis,Abs
Start,500 nm
End,200 nm
Data interval,0.5 nm
Data points,601     

[Measurement Information]
Instrument name,Jasco V-670
Model name,V-670
Serial No.,A007061154

Measurement date,13/05/2022 11:42

Photometric mode,Abs
Measurement range,500 - 200 nm
Data interval,0.5 nm
UV/Vis bandwidth,2.0 nm
NIR bandwidth,8.0 nm
Response,Fast
Scan speed,1000 nm/min
Change source at,340 nm
Change grating at,850 nm
Light source,D2/WI
Filter exchange,Step
Correction,Baseline

