TITLE,
DATA TYPE,ULTRAVIOLET SPECTRUM
ORIGIN,JASCO
OWNER,
DATE,21/09/13
TIME,17:05:09
SPECTROMETER/DATA SYSTEM,
LOCALE,2057
RESOLUTION,
DELTAX,-0.5
XUNITS,NANOMETERS
YUNITS,ABSORBANCE
FIRSTX,  900.0000
LASTX,  300.0000
NPOINTS,    1201
FIRSTY,     0.00239
MAXY,     7.00000
MINY,    -0.00639
XYDATA
900.0000,0.00238861
899.5000,0.00510949
899.0000,-0.00057878
898.5000,0.00498477
898.0000,0.00406392
897.5000,0.0109595
897.0000,0.0069646
896.5000,0.00276455
896.0000,-0.00222433
895.5000,0.000152245
895.0000,-0.00179267
894.5000,-0.00380857
894.0000,-0.00639
893.5000,-0.00228761
893.0000,-0.00347629
892.5000,0.00418439
892.0000,0.001608
891.5000,0.00780165
891.0000,0.00759279
890.5000,0.00365357
890.0000,0.00222682
889.5000,0.00328832
889.0000,0.00598085
888.5000,0.00771686
888.0000,0.00842097
887.5000,0.0062429
887.0000,0.00844792
886.5000,0.00698717
886.0000,0.00646759
885.5000,0.00197614
885.0000,0.00133377
884.5000,-0.00111664
884.0000,-0.00455719
883.5000,0.00593915
883.0000,0.00610743
882.5000,0.0117157
882.0000,0.00793016
881.5000,0.00335672
881.0000,0.00396323
880.5000,0.00687011
880.0000,0.012003
879.5000,0.00235796
879.0000,-0.000922895
878.5000,-0.00178341
878.0000,0.000644037
877.5000,0.00147906
877.0000,0.00132672
876.5000,0.00128659
876.0000,0.00236529
875.5000,0.00634532
875.0000,0.00430142
874.5000,-0.000326733
874.0000,0.00193685
873.5000,0.000219184
873.0000,0.00469172
872.5000,0.00374795
872.0000,0.0093173
871.5000,0.00753838
871.0000,0.00934064
870.5000,0.0090714
870.0000,0.00895049
869.5000,0.0113807
869.0000,0.00690615
868.5000,0.00568535
868.0000,0.00724438
867.5000,0.00997521
867.0000,0.0101306
866.5000,0.00878978
866.0000,0.00576484
865.5000,0.00283568
865.0000,0.00317471
864.5000,0.0026078
864.0000,0.00442622
863.5000,0.0051226
863.0000,0.00517563
862.5000,-0.0060488
862.0000,-0.000474375
861.5000,0.0017938
861.0000,0.00806215
860.5000,0.0021248
860.0000,0.00471867
859.5000,0.0160978
859.0000,0.0147681
858.5000,0.00896063
858.0000,0.00320407
857.5000,0.00441013
857.0000,0.0087816
856.5000,0.00395929
856.0000,0.00669733
855.5000,0.00945291
855.0000,0.0127432
854.5000,0.0107662
854.0000,0.00724853
853.5000,0.00630874
853.0000,0.00564614
852.5000,0.00518258
852.0000,0.00795878
851.5000,0.00991457
851.0000,0.0080853
850.5000,0.00216158
850.0000,0.00394671
849.5000,0.0056067
849.0000,0.00703434
848.5000,0.00716166
848.0000,0.00685461
847.5000,0.00715093
847.0000,0.0069447
846.5000,0.00662266
846.0000,0.00654053
845.5000,0.00539821
845.0000,0.00593971
844.5000,0.00512244
844.0000,0.00562957
843.5000,0.00578268
843.0000,0.00620155
842.5000,0.00572264
842.0000,0.00531065
841.5000,0.00596385
841.0000,0.00574842
840.5000,0.00590708
840.0000,0.00605522
839.5000,0.00609719
839.0000,0.00725273
838.5000,0.0074792
838.0000,0.00801161
837.5000,0.00750518
837.0000,0.00781863
836.5000,0.00746875
836.0000,0.00729601
835.5000,0.00761835
835.0000,0.00653383
834.5000,0.00661648
834.0000,0.00674316
833.5000,0.0076238
833.0000,0.00831479
832.5000,0.00717748
832.0000,0.00764171
831.5000,0.00693926
831.0000,0.00805883
830.5000,0.00675644
830.0000,0.00651962
829.5000,0.00598365
829.0000,0.00662008
828.5000,0.00877459
828.0000,0.00912286
827.5000,0.00958748
827.0000,0.00850948
826.5000,0.00799201
826.0000,0.00743902
825.5000,0.00781867
825.0000,0.00848828
824.5000,0.00915757
824.0000,0.00877382
823.5000,0.00724784
823.0000,0.00708232
822.5000,0.00702226
822.0000,0.00713566
821.5000,0.00725919
821.0000,0.00714693
820.5000,0.00797113
820.0000,0.00854282
819.5000,0.0101695
819.0000,0.0104488
818.5000,0.00997714
818.0000,0.00954431
817.5000,0.00904673
817.0000,0.00892566
816.5000,0.00905774
816.0000,0.00891172
815.5000,0.0101561
815.0000,0.00965855
814.5000,0.00992327
814.0000,0.0102891
813.5000,0.0110745
813.0000,0.0109582
812.5000,0.0112522
812.0000,0.0101067
811.5000,0.0097872
811.0000,0.00944129
810.5000,0.0104231
810.0000,0.0108306
809.5000,0.010533
809.0000,0.0108435
808.5000,0.00928643
808.0000,0.00947102
807.5000,0.00898281
807.0000,0.00960097
806.5000,0.00945994
806.0000,0.0102907
805.5000,0.0100953
805.0000,0.0110615
804.5000,0.0123368
804.0000,0.0123793
803.5000,0.012167
803.0000,0.0110848
802.5000,0.0116978
802.0000,0.0123664
801.5000,0.0119504
801.0000,0.0115512
800.5000,0.0102432
800.0000,0.0105392
799.5000,0.0107587
799.0000,0.0112656
798.5000,0.012257
798.0000,0.0121767
797.5000,0.0124733
797.0000,0.0125976
796.5000,0.0128713
796.0000,0.0141533
795.5000,0.0141762
795.0000,0.0144975
794.5000,0.0147612
794.0000,0.0144227
793.5000,0.0131723
793.0000,0.0125159
792.5000,0.0131528
792.0000,0.0128292
791.5000,0.0135812
791.0000,0.0142584
790.5000,0.0142693
790.0000,0.0140607
789.5000,0.0138214
789.0000,0.0145076
788.5000,0.0146406
788.0000,0.0145505
787.5000,0.0141301
787.0000,0.0145028
786.5000,0.0144033
786.0000,0.0148072
785.5000,0.0147256
785.0000,0.0154375
784.5000,0.0152267
784.0000,0.0160374
783.5000,0.0158777
783.0000,0.0167636
782.5000,0.0167302
782.0000,0.0172283
781.5000,0.0171364
781.0000,0.0172868
780.5000,0.0180758
780.0000,0.0181191
779.5000,0.0183394
779.0000,0.0181754
778.5000,0.0183664
778.0000,0.0185398
777.5000,0.0187604
777.0000,0.0187033
776.5000,0.0184005
776.0000,0.0175399
775.5000,0.0169945
775.0000,0.0175189
774.5000,0.018491
774.0000,0.0185149
773.5000,0.0189654
773.0000,0.0188614
772.5000,0.0198406
772.0000,0.0199869
771.5000,0.0200251
771.0000,0.0200605
770.5000,0.0203469
770.0000,0.0207784
769.5000,0.0204867
769.0000,0.0211019
768.5000,0.0215771
768.0000,0.0219812
767.5000,0.0223339
767.0000,0.0222916
766.5000,0.022786
766.0000,0.0222178
765.5000,0.0226092
765.0000,0.0228562
764.5000,0.0233109
764.0000,0.0228125
763.5000,0.0226858
763.0000,0.0231469
762.5000,0.0237298
762.0000,0.0242138
761.5000,0.0238301
761.0000,0.0242637
760.5000,0.0245028
760.0000,0.0249168
759.5000,0.0252338
759.0000,0.0253283
758.5000,0.0260201
758.0000,0.025867
757.5000,0.0264891
757.0000,0.026152
756.5000,0.0266937
756.0000,0.0264233
755.5000,0.0272912
755.0000,0.0282841
754.5000,0.0290854
754.0000,0.0296259
753.5000,0.0289106
753.0000,0.029092
752.5000,0.0288152
752.0000,0.0291081
751.5000,0.0298657
751.0000,0.0304861
750.5000,0.0304138
750.0000,0.0301882
749.5000,0.0303105
749.0000,0.0309148
748.5000,0.0314574
748.0000,0.0322953
747.5000,0.0323827
747.0000,0.0322752
746.5000,0.032336
746.0000,0.032539
745.5000,0.0330492
745.0000,0.0329909
744.5000,0.0328616
744.0000,0.0335063
743.5000,0.0344994
743.0000,0.0349383
742.5000,0.0348867
742.0000,0.0350649
741.5000,0.0364808
741.0000,0.0376286
740.5000,0.038373
740.0000,0.0368777
739.5000,0.0378785
739.0000,0.0377785
738.5000,0.0376925
738.0000,0.0371446
737.5000,0.0384027
737.0000,0.0387486
736.5000,0.0395475
736.0000,0.0397059
735.5000,0.040045
735.0000,0.0406542
734.5000,0.0407011
734.0000,0.0409486
733.5000,0.0416356
733.0000,0.0423514
732.5000,0.0427647
732.0000,0.0433096
731.5000,0.0440916
731.0000,0.0444984
730.5000,0.0450115
730.0000,0.045345
729.5000,0.0458843
729.0000,0.0461341
728.5000,0.0465381
728.0000,0.0465183
727.5000,0.046354
727.0000,0.0465589
726.5000,0.0470925
726.0000,0.0474016
725.5000,0.0476795
725.0000,0.0477836
724.5000,0.0493
724.0000,0.0500648
723.5000,0.0513348
723.0000,0.0512246
722.5000,0.0521591
722.0000,0.0522532
721.5000,0.0528423
721.0000,0.0524463
720.5000,0.0528373
720.0000,0.0527652
719.5000,0.0533074
719.0000,0.0533548
718.5000,0.0543985
718.0000,0.0552459
717.5000,0.0564981
717.0000,0.0566117
716.5000,0.0571894
716.0000,0.0575578
715.5000,0.0580333
715.0000,0.0578571
714.5000,0.0584113
714.0000,0.0590768
713.5000,0.0599922
713.0000,0.0601681
712.5000,0.0611518
712.0000,0.0613924
711.5000,0.0615084
711.0000,0.062089
710.5000,0.0624365
710.0000,0.0626924
709.5000,0.063022
709.0000,0.0636281
708.5000,0.0643861
708.0000,0.0649044
707.5000,0.0653106
707.0000,0.0663205
706.5000,0.0665174
706.0000,0.0670543
705.5000,0.0671243
705.0000,0.0675083
704.5000,0.0675508
704.0000,0.0675685
703.5000,0.0685883
703.0000,0.0690886
702.5000,0.0700099
702.0000,0.0699627
701.5000,0.0707681
701.0000,0.0710202
700.5000,0.072009
700.0000,0.0725335
699.5000,0.0726272
699.0000,0.0730664
698.5000,0.0737346
698.0000,0.0740937
697.5000,0.074859
697.0000,0.0752027
696.5000,0.0751994
696.0000,0.0754601
695.5000,0.0764552
695.0000,0.076852
694.5000,0.0779176
694.0000,0.0780735
693.5000,0.0787273
693.0000,0.0789274
692.5000,0.0790283
692.0000,0.079793
691.5000,0.0802958
691.0000,0.0808572
690.5000,0.0808795
690.0000,0.080792
689.5000,0.0816745
689.0000,0.0814833
688.5000,0.0822902
688.0000,0.0823566
687.5000,0.0837355
687.0000,0.0841621
686.5000,0.0848652
686.0000,0.0853032
685.5000,0.0859938
685.0000,0.0861303
684.5000,0.0865912
684.0000,0.0872042
683.5000,0.0875088
683.0000,0.0872659
682.5000,0.0875587
682.0000,0.0878332
681.5000,0.0885133
681.0000,0.0887392
680.5000,0.0887591
680.0000,0.0893696
679.5000,0.0902847
679.0000,0.0908084
678.5000,0.0915318
678.0000,0.0918756
677.5000,0.0915522
677.0000,0.0915877
676.5000,0.09194
676.0000,0.0924712
675.5000,0.0934349
675.0000,0.0937749
674.5000,0.0942793
674.0000,0.0945172
673.5000,0.0951038
673.0000,0.0956679
672.5000,0.0960205
672.0000,0.0958911
671.5000,0.0962243
671.0000,0.0959302
670.5000,0.096515
670.0000,0.096607
669.5000,0.0976216
669.0000,0.0975918
668.5000,0.0983916
668.0000,0.098443
667.5000,0.0993591
667.0000,0.0993578
666.5000,0.100117
666.0000,0.0998848
665.5000,0.101097
665.0000,0.101284
664.5000,0.102184
664.0000,0.101958
663.5000,0.102883
663.0000,0.102763
662.5000,0.103222
662.0000,0.103624
661.5000,0.104168
661.0000,0.105188
660.5000,0.105137
660.0000,0.105049
659.5000,0.105415
659.0000,0.105798
658.5000,0.106889
658.0000,0.107302
657.5000,0.107491
657.0000,0.107875
656.5000,0.107809
656.0000,0.108281
655.5000,0.108869
655.0000,0.109507
654.5000,0.109892
654.0000,0.110349
653.5000,0.110598
653.0000,0.111119
652.5000,0.111942
652.0000,0.112473
651.5000,0.113202
651.0000,0.113429
650.5000,0.114143
650.0000,0.114006
649.5000,0.114594
649.0000,0.114341
648.5000,0.115188
648.0000,0.11593
647.5000,0.117371
647.0000,0.117888
646.5000,0.117336
646.0000,0.117754
645.5000,0.118439
645.0000,0.11936
644.5000,0.119668
644.0000,0.119615
643.5000,0.119589
643.0000,0.120253
642.5000,0.120806
642.0000,0.121456
641.5000,0.121866
641.0000,0.122296
640.5000,0.123467
640.0000,0.123738
639.5000,0.124371
639.0000,0.124398
638.5000,0.125011
638.0000,0.12545
637.5000,0.126182
637.0000,0.126456
636.5000,0.127092
636.0000,0.127867
635.5000,0.128211
635.0000,0.12851
634.5000,0.128698
634.0000,0.129067
633.5000,0.129519
633.0000,0.130647
632.5000,0.130829
632.0000,0.131668
631.5000,0.131792
631.0000,0.131935
630.5000,0.13284
630.0000,0.132963
629.5000,0.134038
629.0000,0.134812
628.5000,0.134972
628.0000,0.135665
627.5000,0.135928
627.0000,0.136055
626.5000,0.136671
626.0000,0.137092
625.5000,0.137483
625.0000,0.137851
624.5000,0.138294
624.0000,0.139224
623.5000,0.139649
623.0000,0.139678
622.5000,0.139681
622.0000,0.140118
621.5000,0.14092
621.0000,0.14135
620.5000,0.142458
620.0000,0.142524
619.5000,0.143538
619.0000,0.143591
618.5000,0.144022
618.0000,0.144153
617.5000,0.144342
617.0000,0.144863
616.5000,0.145297
616.0000,0.145262
615.5000,0.145629
615.0000,0.146013
614.5000,0.147227
614.0000,0.147687
613.5000,0.148171
613.0000,0.148965
612.5000,0.149276
612.0000,0.149278
611.5000,0.149779
611.0000,0.149706
610.5000,0.150686
610.0000,0.150513
609.5000,0.151464
609.0000,0.152147
608.5000,0.152838
608.0000,0.15279
607.5000,0.153246
607.0000,0.153529
606.5000,0.153756
606.0000,0.154011
605.5000,0.154579
605.0000,0.155245
604.5000,0.155838
604.0000,0.155922
603.5000,0.155877
603.0000,0.156264
602.5000,0.156255
602.0000,0.15682
601.5000,0.15756
601.0000,0.157896
600.5000,0.158491
600.0000,0.159553
599.5000,0.160746
599.0000,0.160819
598.5000,0.161473
598.0000,0.161478
597.5000,0.1621
597.0000,0.162345
596.5000,0.162476
596.0000,0.162813
595.5000,0.162881
595.0000,0.162979
594.5000,0.163829
594.0000,0.163615
593.5000,0.1644
593.0000,0.164341
592.5000,0.165724
592.0000,0.166169
591.5000,0.166855
591.0000,0.166929
590.5000,0.166446
590.0000,0.16656
589.5000,0.167578
589.0000,0.168085
588.5000,0.169628
588.0000,0.170261
587.5000,0.170783
587.0000,0.170543
586.5000,0.170563
586.0000,0.171641
585.5000,0.171756
585.0000,0.172411
584.5000,0.172848
584.0000,0.173002
583.5000,0.173875
583.0000,0.174114
582.5000,0.175127
582.0000,0.175463
581.5000,0.176284
581.0000,0.176949
580.5000,0.177137
580.0000,0.177431
579.5000,0.177615
579.0000,0.178259
578.5000,0.178895
578.0000,0.179767
577.5000,0.18034
577.0000,0.181266
576.5000,0.181212
576.0000,0.18227
575.5000,0.182598
575.0000,0.1837
574.5000,0.184807
574.0000,0.184915
573.5000,0.185989
573.0000,0.186153
572.5000,0.187225
572.0000,0.187999
571.5000,0.188212
571.0000,0.188829
570.5000,0.189064
570.0000,0.189739
569.5000,0.190335
569.0000,0.191089
568.5000,0.191978
568.0000,0.192741
567.5000,0.192835
567.0000,0.193107
566.5000,0.193965
566.0000,0.194848
565.5000,0.195938
565.0000,0.196242
564.5000,0.196716
564.0000,0.197651
563.5000,0.198902
563.0000,0.19981
562.5000,0.199728
562.0000,0.200248
561.5000,0.201325
561.0000,0.202516
560.5000,0.203599
560.0000,0.203703
559.5000,0.204949
559.0000,0.206313
558.5000,0.207338
558.0000,0.208529
557.5000,0.209508
557.0000,0.210212
556.5000,0.210643
556.0000,0.211693
555.5000,0.213025
555.0000,0.214394
554.5000,0.215769
554.0000,0.216069
553.5000,0.217113
553.0000,0.218008
552.5000,0.220181
552.0000,0.221061
551.5000,0.222484
551.0000,0.222731
550.5000,0.223935
550.0000,0.224809
549.5000,0.226887
549.0000,0.228244
548.5000,0.229896
548.0000,0.231
547.5000,0.232142
547.0000,0.233328
546.5000,0.234795
546.0000,0.236279
545.5000,0.237696
545.0000,0.239236
544.5000,0.240733
544.0000,0.241918
543.5000,0.243884
543.0000,0.244507
542.5000,0.246256
542.0000,0.246922
541.5000,0.249105
541.0000,0.250415
540.5000,0.253369
540.0000,0.254686
539.5000,0.257198
539.0000,0.258453
538.5000,0.260769
538.0000,0.261968
537.5000,0.264324
537.0000,0.266102
536.5000,0.26877
536.0000,0.270378
535.5000,0.273174
535.0000,0.274648
534.5000,0.276902
534.0000,0.278651
533.5000,0.280705
533.0000,0.28278
532.5000,0.285148
532.0000,0.287359
531.5000,0.290096
531.0000,0.292171
530.5000,0.294972
530.0000,0.297313
529.5000,0.30007
529.0000,0.302397
528.5000,0.304564
528.0000,0.305879
527.5000,0.309136
527.0000,0.311449
526.5000,0.314712
526.0000,0.31609
525.5000,0.319676
525.0000,0.321963
524.5000,0.324829
524.0000,0.326387
523.5000,0.329794
523.0000,0.332388
522.5000,0.336055
522.0000,0.337958
521.5000,0.340802
521.0000,0.342575
520.5000,0.345803
520.0000,0.347822
519.5000,0.352043
519.0000,0.354552
518.5000,0.357787
518.0000,0.360057
517.5000,0.363063
517.0000,0.364849
516.5000,0.367905
516.0000,0.3702
515.5000,0.373991
515.0000,0.376297
514.5000,0.378476
514.0000,0.380536
513.5000,0.382324
513.0000,0.384931
512.5000,0.386646
512.0000,0.389175
511.5000,0.391828
511.0000,0.392954
510.5000,0.395124
510.0000,0.396807
509.5000,0.400076
509.0000,0.401001
508.5000,0.403923
508.0000,0.405306
507.5000,0.408034
507.0000,0.409019
506.5000,0.41083
506.0000,0.412491
505.5000,0.414207
505.0000,0.415525
504.5000,0.41607
504.0000,0.417157
503.5000,0.417786
503.0000,0.418792
502.5000,0.41956
502.0000,0.420501
501.5000,0.421026
501.0000,0.421825
500.5000,0.422034
500.0000,0.421497
499.5000,0.422305
499.0000,0.422744
498.5000,0.424331
498.0000,0.423715
497.5000,0.423379
497.0000,0.423719
496.5000,0.424222
496.0000,0.424114
495.5000,0.423559
495.0000,0.423338
494.5000,0.422607
494.0000,0.422328
493.5000,0.422136
493.0000,0.422453
492.5000,0.422392
492.0000,0.421963
491.5000,0.42185
491.0000,0.420787
490.5000,0.419706
490.0000,0.41934
489.5000,0.4186
489.0000,0.418263
488.5000,0.417222
488.0000,0.416065
487.5000,0.414347
487.0000,0.413842
486.5000,0.412491
486.0000,0.411425
485.5000,0.410196
485.0000,0.409012
484.5000,0.408816
484.0000,0.407858
483.5000,0.406554
483.0000,0.40602
482.5000,0.404586
482.0000,0.404219
481.5000,0.4022
481.0000,0.401218
480.5000,0.399506
480.0000,0.399384
479.5000,0.397382
479.0000,0.396187
478.5000,0.393958
478.0000,0.393733
477.5000,0.393551
477.0000,0.39227
476.5000,0.390693
476.0000,0.388984
475.5000,0.387994
475.0000,0.386578
474.5000,0.384868
474.0000,0.383462
473.5000,0.381594
473.0000,0.380748
472.5000,0.378726
472.0000,0.378241
471.5000,0.377004
471.0000,0.376469
470.5000,0.374276
470.0000,0.372435
469.5000,0.371438
469.0000,0.369946
468.5000,0.368754
468.0000,0.367555
467.5000,0.366385
467.0000,0.36448
466.5000,0.362344
466.0000,0.361452
465.5000,0.359587
465.0000,0.358016
464.5000,0.356713
464.0000,0.355898
463.5000,0.354534
463.0000,0.35291
462.5000,0.350986
462.0000,0.349423
461.5000,0.348564
461.0000,0.347786
460.5000,0.346147
460.0000,0.345011
459.5000,0.342449
459.0000,0.341257
458.5000,0.339799
458.0000,0.338134
457.5000,0.336662
457.0000,0.335757
456.5000,0.334717
456.0000,0.333959
455.5000,0.331415
455.0000,0.330159
454.5000,0.32743
454.0000,0.327125
453.5000,0.325163
453.0000,0.325163
452.5000,0.322861
452.0000,0.321741
451.5000,0.318979
451.0000,0.317422
450.5000,0.314995
450.0000,0.314183
449.5000,0.312517
449.0000,0.312036
448.5000,0.310212
448.0000,0.308847
447.5000,0.306873
447.0000,0.306349
446.5000,0.304424
446.0000,0.304527
445.5000,0.303297
445.0000,0.302503
444.5000,0.301296
444.0000,0.3003
443.5000,0.298178
443.0000,0.296649
442.5000,0.295754
442.0000,0.295168
441.5000,0.293023
441.0000,0.291446
440.5000,0.289809
440.0000,0.289069
439.5000,0.287982
439.0000,0.2865
438.5000,0.284341
438.0000,0.283853
437.5000,0.281455
437.0000,0.280851
436.5000,0.278707
436.0000,0.278751
435.5000,0.276341
435.0000,0.276231
434.5000,0.273889
434.0000,0.273476
433.5000,0.272642
433.0000,0.272373
432.5000,0.272336
432.0000,0.272397
431.5000,0.271183
431.0000,0.270178
430.5000,0.268228
430.0000,0.2673
429.5000,0.26676
429.0000,0.267202
428.5000,0.266242
428.0000,0.266173
427.5000,0.264377
427.0000,0.263616
426.5000,0.262222
426.0000,0.262158
425.5000,0.261021
425.0000,0.260789
424.5000,0.261179
424.0000,0.262195
423.5000,0.261338
423.0000,0.260587
422.5000,0.259675
422.0000,0.259078
421.5000,0.258399
421.0000,0.258176
420.5000,0.259091
420.0000,0.260572
419.5000,0.259926
419.0000,0.260046
418.5000,0.259377
418.0000,0.259369
417.5000,0.260665
417.0000,0.260969
416.5000,0.262528
416.0000,0.261172
415.5000,0.261665
415.0000,0.26131
414.5000,0.26221
414.0000,0.262123
413.5000,0.263379
413.0000,0.263272
412.5000,0.26412
412.0000,0.263548
411.5000,0.263599
411.0000,0.263612
410.5000,0.264968
410.0000,0.265767
409.5000,0.268403
409.0000,0.268795
408.5000,0.268827
408.0000,0.268695
407.5000,0.269362
407.0000,0.270035
406.5000,0.273315
406.0000,0.274637
405.5000,0.276618
405.0000,0.277646
404.5000,0.278506
404.0000,0.279534
403.5000,0.279999
403.0000,0.280736
402.5000,0.281969
402.0000,0.283092
401.5000,0.285551
401.0000,0.285212
400.5000,0.287657
400.0000,0.288749
399.5000,0.292322
399.0000,0.292992
398.5000,0.29493
398.0000,0.296033
397.5000,0.29656
397.0000,0.297761
396.5000,0.299589
396.0000,0.302479
395.5000,0.306152
395.0000,0.307794
394.5000,0.3109
394.0000,0.312637
393.5000,0.31576
393.0000,0.317712
392.5000,0.320175
392.0000,0.321863
391.5000,0.32419
391.0000,0.325855
390.5000,0.329207
390.0000,0.331534
389.5000,0.335555
389.0000,0.33878
388.5000,0.342844
388.0000,0.345432
387.5000,0.347217
387.0000,0.349268
386.5000,0.354829
386.0000,0.357674
385.5000,0.361039
385.0000,0.360383
384.5000,0.363178
384.0000,0.367178
383.5000,0.370416
383.0000,0.373369
382.5000,0.375769
382.0000,0.379211
381.5000,0.383161
381.0000,0.386586
380.5000,0.391375
380.0000,0.394619
379.5000,0.399945
379.0000,0.401941
378.5000,0.405981
378.0000,0.408504
377.5000,0.413071
377.0000,0.416767
376.5000,0.42216
376.0000,0.425053
375.5000,0.430803
375.0000,0.432581
374.5000,0.437675
374.0000,0.438683
373.5000,0.444669
373.0000,0.448114
372.5000,0.451563
372.0000,0.454055
371.5000,0.457802
371.0000,0.461191
370.5000,0.46279
370.0000,0.470562
369.5000,0.476263
369.0000,0.478216
368.5000,0.47878
368.0000,0.479526
367.5000,0.488075
367.0000,0.49078
366.5000,0.493675
366.0000,0.493671
365.5000,0.49632
365.0000,0.498505
364.5000,0.501042
364.0000,0.502867
363.5000,0.509913
363.0000,0.511359
362.5000,0.512772
362.0000,0.515399
361.5000,0.518052
361.0000,0.519672
360.5000,0.521191
360.0000,0.525349
359.5000,0.528893
359.0000,0.530743
358.5000,0.52906
358.0000,0.529114
357.5000,0.530272
357.0000,0.533137
356.5000,0.53536
356.0000,0.536864
355.5000,0.543379
355.0000,0.543402
354.5000,0.536756
354.0000,0.535992
353.5000,0.539179
353.0000,0.544382
352.5000,0.547472
352.0000,0.54875
351.5000,0.553997
351.0000,0.552417
350.5000,0.552825
350.0000,0.554529
349.5000,0.552454
349.0000,0.550114
348.5000,0.543639
348.0000,0.543417
347.5000,0.547532
347.0000,0.548527
346.5000,0.550089
346.0000,0.550804
345.5000,0.555618
345.0000,0.554062
344.5000,0.550355
344.0000,0.544483
343.5000,0.542576
343.0000,0.545388
342.5000,0.544679
342.0000,0.540367
341.5000,0.540683
341.0000,0.544665
340.5000,0.542208
340.0000,0.526108
339.5000,0.525984
339.0000,0.525428
338.5000,0.523302
338.0000,0.524289
337.5000,0.523602
337.0000,0.523223
336.5000,0.520863
336.0000,0.520169
335.5000,0.52086
335.0000,0.521775
334.5000,0.523377
334.0000,0.525803
333.5000,0.527633
333.0000,0.529582
332.5000,0.531869
332.0000,0.534774
331.5000,0.539524
331.0000,0.541723
330.5000,0.547812
330.0000,0.552151
329.5000,0.561208
329.0000,0.567101
328.5000,0.576987
328.0000,0.584288
327.5000,0.597584
327.0000,0.609076
326.5000,0.627016
326.0000,0.641027
325.5000,0.664314
325.0000,0.680999
324.5000,0.709804
324.0000,0.731386
323.5000,0.7693
323.0000,0.797984
322.5000,0.843209
322.0000,0.87648
321.5000,0.933871
321.0000,0.978375
320.5000,1.04692
320.0000,1.09787
319.5000,1.17764
319.0000,1.23468
318.5000,1.31863
318.0000,1.37866
317.5000,1.48407
317.0000,1.55688
316.5000,1.6661
316.0000,1.73641
315.5000,1.84357
315.0000,1.92439
314.5000,2.02162
314.0000,2.09829
313.5000,2.25368
313.0000,2.38254
312.5000,2.62215
312.0000,2.78614
311.5000,3.26567
311.0000,7
310.5000,7
310.0000,7
309.5000,7
309.0000,7
308.5000,7
308.0000,7
307.5000,7
307.0000,7
306.5000,7
306.0000,7
305.5000,7
305.0000,7
304.5000,7
304.0000,7
303.5000,7
303.0000,7
302.5000,7
302.0000,7
301.5000,7
301.0000,7
300.5000,7
300.0000,7

##### Extended Information
[Comments]
Sample name
Comment
User
Division
Company,Glasgow University

[Detailed Information]
Creation date,13/09/2021 17:05

Data array type,Linear data array
Horizontal axis,Wavelength [nm]
Vertical axis,Abs
Start,900 nm
End,300 nm
Data interval,0.5 nm
Data points,1201    

[Measurement Information]
Instrument name,Jasco V-670
Model name,V-670
Serial No.,A007061154

Measurement date,13/09/2021 17:05

Photometric mode,Abs
Measurement range,900 - 300 nm
Data interval,0.5 nm
UV/Vis bandwidth,0.5 nm
NIR bandwidth,2.0 nm
Response,Fast
Scan speed,400 nm/min
Change source at,340 nm
Change grating at,850 nm
Light source,D2/WI
Filter exchange,Step
Correction,Baseline

