TITLE,
DATA TYPE,ULTRAVIOLET SPECTRUM
ORIGIN,JASCO
OWNER,
DATE,21/09/13
TIME,17:51:40
SPECTROMETER/DATA SYSTEM,
LOCALE,2057
RESOLUTION,
DELTAX,-0.5
XUNITS,NANOMETERS
YUNITS,ABSORBANCE
FIRSTX,  900.0000
LASTX,  300.0000
NPOINTS,    1201
FIRSTY,     0.00974
MAXY,     1.00322
MINY,    -0.00887
XYDATA
900.0000,0.00974112
899.5000,0.00489974
899.0000,0.00412922
898.5000,0.00570557
898.0000,0.00777553
897.5000,0.00579166
897.0000,0.00287936
896.5000,0.00297461
896.0000,0.00215524
895.5000,0.00214783
895.0000,0.00387784
894.5000,0.0032247
894.0000,0.00172843
893.5000,-0.000245143
893.0000,-0.00144207
892.5000,0.00297971
892.0000,0.00475377
891.5000,0.00334113
891.0000,0.000443282
890.5000,0.00209534
890.0000,0.00801155
889.5000,0.00966913
889.0000,0.00900422
888.5000,0.000718704
888.0000,-0.00027281
887.5000,0.00311682
887.0000,0.00201476
886.5000,0.00216279
886.0000,-0.00249616
885.5000,-0.0039717
885.0000,-0.00357678
884.5000,-0.00123706
884.0000,0.00852965
883.5000,0.0128346
883.0000,0.0100933
882.5000,0.00640585
882.0000,0.00277127
881.5000,0.00268646
881.0000,-0.00075892
880.5000,0.007962
880.0000,0.00534091
879.5000,0.00562575
879.0000,-0.00154577
878.5000,0.00423496
878.0000,0.00708606
877.5000,0.00651821
877.0000,0.00619512
876.5000,0.00509035
876.0000,0.0104563
875.5000,0.00268792
875.0000,0.0010887
874.5000,-0.00769958
874.0000,-0.00804003
873.5000,-0.00310919
873.0000,-0.00087204
872.5000,0.00632858
872.0000,0.00397979
871.5000,0.00828962
871.0000,0.00961766
870.5000,0.00877168
870.0000,0.00413408
869.5000,0.00568281
869.0000,0.00393776
868.5000,0.00255728
868.0000,0.00370263
867.5000,0.00478993
867.0000,0.00938209
866.5000,0.010503
866.0000,0.00685939
865.5000,0.000695677
865.0000,-0.00132699
864.5000,-0.00648448
864.0000,-0.00632305
863.5000,-0.00887144
863.0000,-0.00265193
862.5000,-0.000500171
862.0000,0.00595789
861.5000,0.0140078
861.0000,0.0183171
860.5000,0.0111045
860.0000,0.00911689
859.5000,0.00567261
859.0000,0.00188954
858.5000,-0.00333191
858.0000,-0.00717749
857.5000,0.000969808
857.0000,-7.97017E-005
856.5000,0.00863498
856.0000,0.00864488
855.5000,0.00534947
855.0000,0.00609019
854.5000,-0.00139999
854.0000,-0.00194217
853.5000,0.00929594
853.0000,0.00711097
852.5000,0.00680314
852.0000,-0.00194922
851.5000,0.00458573
851.0000,0.0033587
850.5000,0.00740333
850.0000,0.00416782
849.5000,0.00453591
849.0000,0.00391818
848.5000,0.00347047
848.0000,0.00422609
847.5000,0.00413188
847.0000,0.00466214
846.5000,0.00429497
846.0000,0.00434824
845.5000,0.0031289
845.0000,0.00286678
844.5000,0.00166634
844.0000,0.00161873
843.5000,0.002334
843.0000,0.00328463
842.5000,0.00434421
842.0000,0.0040608
841.5000,0.0038653
841.0000,0.00319751
840.5000,0.00340027
840.0000,0.00349822
839.5000,0.00339732
839.0000,0.00363157
838.5000,0.00409282
838.0000,0.00358503
837.5000,0.00380793
837.0000,0.00348831
836.5000,0.00290347
836.0000,0.00312215
835.5000,0.00351604
835.0000,0.00362132
834.5000,0.00304567
834.0000,0.00259978
833.5000,0.00343738
833.0000,0.00366287
832.5000,0.00394957
832.0000,0.00403857
831.5000,0.00330057
831.0000,0.00244998
830.5000,0.00281918
830.0000,0.00360915
829.5000,0.00372154
829.0000,0.00302817
828.5000,0.00282933
828.0000,0.00261728
827.5000,0.00278908
827.0000,0.00217615
826.5000,0.00299513
826.0000,0.00325505
825.5000,0.00372444
825.0000,0.00398115
824.5000,0.00359284
824.0000,0.00333733
823.5000,0.00312143
823.0000,0.00342035
822.5000,0.00291131
822.0000,0.00280021
821.5000,0.00372964
821.0000,0.00400136
820.5000,0.00385847
820.0000,0.00318898
819.5000,0.00259491
819.0000,0.00262441
818.5000,0.00333767
818.0000,0.00316069
817.5000,0.00402034
817.0000,0.00424641
816.5000,0.00523717
816.0000,0.00458558
815.5000,0.00411471
815.0000,0.00301945
814.5000,0.0026113
814.0000,0.00299131
813.5000,0.00311316
813.0000,0.00301048
812.5000,0.00367626
812.0000,0.00369206
811.5000,0.00422602
811.0000,0.00319903
810.5000,0.00329312
810.0000,0.00265005
809.5000,0.00285697
809.0000,0.00371712
808.5000,0.00328812
808.0000,0.00330268
807.5000,0.00298425
807.0000,0.00373842
806.5000,0.00438355
806.0000,0.003677
805.5000,0.00300213
805.0000,0.00297323
804.5000,0.00414571
804.0000,0.00406819
803.5000,0.00442245
803.0000,0.00394927
802.5000,0.00391639
802.0000,0.00383914
801.5000,0.00414722
801.0000,0.0040283
800.5000,0.00368437
800.0000,0.00385444
799.5000,0.00373977
799.0000,0.0042154
798.5000,0.00479765
798.0000,0.005463
797.5000,0.00479467
797.0000,0.00455632
796.5000,0.00467201
796.0000,0.00475212
795.5000,0.00513662
795.0000,0.00499138
794.5000,0.00426215
794.0000,0.00373297
793.5000,0.00324291
793.0000,0.00358599
792.5000,0.00437559
792.0000,0.00330569
791.5000,0.0035165
791.0000,0.00314841
790.5000,0.00378301
790.0000,0.00377107
789.5000,0.00375697
789.0000,0.00372597
788.5000,0.00379456
788.0000,0.00375175
787.5000,0.00378183
787.0000,0.00373467
786.5000,0.00317727
786.0000,0.00250503
785.5000,0.00219418
785.0000,0.00334118
784.5000,0.00408702
784.0000,0.00407047
783.5000,0.00409352
783.0000,0.00427152
782.5000,0.00465609
782.0000,0.00496233
781.5000,0.00442228
781.0000,0.00427947
780.5000,0.00402952
780.0000,0.0037747
779.5000,0.00420906
779.0000,0.00442732
778.5000,0.00408333
778.0000,0.00443599
777.5000,0.00409552
777.0000,0.00409342
776.5000,0.00414995
776.0000,0.00426925
775.5000,0.00412466
775.0000,0.00378768
774.5000,0.00360749
774.0000,0.00362812
773.5000,0.00424881
773.0000,0.00413866
772.5000,0.00391087
772.0000,0.00343403
771.5000,0.00362471
771.0000,0.00398003
770.5000,0.00432279
770.0000,0.0035816
769.5000,0.00436554
769.0000,0.00436671
768.5000,0.00428878
768.0000,0.00450393
767.5000,0.00449214
767.0000,0.00478183
766.5000,0.00458526
766.0000,0.00515983
765.5000,0.004851
765.0000,0.00540077
764.5000,0.00525341
764.0000,0.00560139
763.5000,0.00520479
763.0000,0.00495792
762.5000,0.0048609
762.0000,0.00475261
761.5000,0.00493088
761.0000,0.00443261
760.5000,0.00446201
760.0000,0.00402182
759.5000,0.00451546
759.0000,0.00453924
758.5000,0.00527284
758.0000,0.00511741
757.5000,0.00522565
757.0000,0.00469069
756.5000,0.0049536
756.0000,0.0043103
755.5000,0.00411582
755.0000,0.0040459
754.5000,0.0030956
754.0000,0.00376218
753.5000,0.00418989
753.0000,0.00463205
752.5000,0.00558034
752.0000,0.00510377
751.5000,0.00467153
751.0000,0.00396238
750.5000,0.00409035
750.0000,0.00429099
749.5000,0.0043631
749.0000,0.00448381
748.5000,0.00450687
748.0000,0.00398522
747.5000,0.00489
747.0000,0.00492015
746.5000,0.00588115
746.0000,0.0056876
745.5000,0.00587003
745.0000,0.00568781
744.5000,0.00582684
744.0000,0.00559257
743.5000,0.00471149
743.0000,0.00458073
742.5000,0.004659
742.0000,0.00450315
741.5000,0.00449541
741.0000,0.00494801
740.5000,0.00513305
740.0000,0.00544785
739.5000,0.00496341
739.0000,0.00520703
738.5000,0.0055176
738.0000,0.00609786
737.5000,0.00573013
737.0000,0.00558
736.5000,0.00521102
736.0000,0.005455
735.5000,0.00549271
735.0000,0.00567981
734.5000,0.0055001
734.0000,0.00627809
733.5000,0.0061147
733.0000,0.00619779
732.5000,0.0052576
732.0000,0.00523632
731.5000,0.00543274
731.0000,0.00581926
730.5000,0.00642787
730.0000,0.00655052
729.5000,0.00576198
729.0000,0.0054792
728.5000,0.00517652
728.0000,0.00552378
727.5000,0.00583951
727.0000,0.005647
726.5000,0.00581029
726.0000,0.00526091
725.5000,0.00518405
725.0000,0.00519494
724.5000,0.00535681
724.0000,0.00556085
723.5000,0.00540942
723.0000,0.00527191
722.5000,0.0055836
722.0000,0.00581669
721.5000,0.0059699
721.0000,0.00593328
720.5000,0.00495844
720.0000,0.00479743
719.5000,0.00498125
719.0000,0.0053822
718.5000,0.00617283
718.0000,0.00635926
717.5000,0.00640056
717.0000,0.00637555
716.5000,0.00617705
716.0000,0.00662267
715.5000,0.00639108
715.0000,0.00696476
714.5000,0.00632917
714.0000,0.00635962
713.5000,0.00635563
713.0000,0.00638805
712.5000,0.00662272
712.0000,0.00683491
711.5000,0.00668371
711.0000,0.00669456
710.5000,0.00535625
710.0000,0.00500829
709.5000,0.00504743
709.0000,0.00544829
708.5000,0.00631627
708.0000,0.0062227
707.5000,0.00659683
707.0000,0.0063211
706.5000,0.00665762
706.0000,0.00699879
705.5000,0.00749944
705.0000,0.00755478
704.5000,0.0076935
704.0000,0.00733169
703.5000,0.00703423
703.0000,0.00698567
702.5000,0.00757272
702.0000,0.00769672
701.5000,0.00791203
701.0000,0.00769788
700.5000,0.0073196
700.0000,0.00734262
699.5000,0.00757768
699.0000,0.0078582
698.5000,0.00763359
698.0000,0.00780558
697.5000,0.00783194
697.0000,0.00814205
696.5000,0.00806454
696.0000,0.00833127
695.5000,0.00848334
695.0000,0.00829773
694.5000,0.00891182
694.0000,0.00897433
693.5000,0.00922006
693.0000,0.00917523
692.5000,0.0093432
692.0000,0.00956031
691.5000,0.00931406
691.0000,0.00921445
690.5000,0.00864573
690.0000,0.0087331
689.5000,0.0086419
689.0000,0.00887976
688.5000,0.00977754
688.0000,0.0104905
687.5000,0.0101596
687.0000,0.00999891
686.5000,0.0100685
686.0000,0.0101486
685.5000,0.00997108
685.0000,0.010164
684.5000,0.0107845
684.0000,0.0108351
683.5000,0.0109052
683.0000,0.0105221
682.5000,0.0109316
682.0000,0.0108046
681.5000,0.0113774
681.0000,0.0111162
680.5000,0.0109301
680.0000,0.0108861
679.5000,0.011575
679.0000,0.0118896
678.5000,0.0125194
678.0000,0.0121947
677.5000,0.0121573
677.0000,0.0117961
676.5000,0.0118448
676.0000,0.0118039
675.5000,0.0122639
675.0000,0.0118831
674.5000,0.0121877
674.0000,0.0126941
673.5000,0.0132828
673.0000,0.0138539
672.5000,0.0139291
672.0000,0.0139569
671.5000,0.0140934
671.0000,0.013636
670.5000,0.0139815
670.0000,0.0141934
669.5000,0.0148707
669.0000,0.0150437
668.5000,0.0148528
668.0000,0.0149227
667.5000,0.0151794
667.0000,0.0154168
666.5000,0.0158768
666.0000,0.0159473
665.5000,0.015928
665.0000,0.0153984
664.5000,0.0154727
664.0000,0.0155624
663.5000,0.016083
663.0000,0.0163352
662.5000,0.0167883
662.0000,0.0169725
661.5000,0.017204
661.0000,0.0172478
660.5000,0.0170513
660.0000,0.0170795
659.5000,0.01725
659.0000,0.0177694
658.5000,0.018129
658.0000,0.0182006
657.5000,0.0185031
657.0000,0.0186537
656.5000,0.0186195
656.0000,0.0182086
655.5000,0.0183781
655.0000,0.0186224
654.5000,0.0195416
654.0000,0.0194672
653.5000,0.0196532
653.0000,0.0196025
652.5000,0.0199727
652.0000,0.0198708
651.5000,0.0202018
651.0000,0.0203236
650.5000,0.0213215
650.0000,0.0217096
649.5000,0.0226459
649.0000,0.0228786
648.5000,0.0229634
648.0000,0.0230887
647.5000,0.022845
647.0000,0.023054
646.5000,0.023381
646.0000,0.023405
645.5000,0.0237819
645.0000,0.0238045
644.5000,0.0239381
644.0000,0.0238848
643.5000,0.0240956
643.0000,0.0242614
642.5000,0.0252203
642.0000,0.0257446
641.5000,0.0260123
641.0000,0.0260909
640.5000,0.0263655
640.0000,0.0263012
639.5000,0.0267417
639.0000,0.0270558
638.5000,0.0276312
638.0000,0.0279268
637.5000,0.028484
637.0000,0.0284659
636.5000,0.0290352
636.0000,0.0293007
635.5000,0.0296469
635.0000,0.029617
634.5000,0.0299046
634.0000,0.0303023
633.5000,0.0308045
633.0000,0.0312378
632.5000,0.0317854
632.0000,0.031989
631.5000,0.0325746
631.0000,0.0324382
630.5000,0.0332461
630.0000,0.0335028
629.5000,0.034061
629.0000,0.0336724
628.5000,0.0337278
628.0000,0.0339249
627.5000,0.0343306
627.0000,0.0348885
626.5000,0.0347438
626.0000,0.0351582
625.5000,0.0355554
625.0000,0.036281
624.5000,0.037093
624.0000,0.0377397
623.5000,0.0376693
623.0000,0.0377699
622.5000,0.0383046
622.0000,0.039023
621.5000,0.0397549
621.0000,0.0393488
620.5000,0.0395186
620.0000,0.0394418
619.5000,0.0404138
619.0000,0.0409152
618.5000,0.0417712
618.0000,0.0421042
617.5000,0.0418593
617.0000,0.0420824
616.5000,0.0422435
616.0000,0.0432345
615.5000,0.0441354
615.0000,0.0444405
614.5000,0.0451723
614.0000,0.0451758
613.5000,0.0459852
613.0000,0.0459119
612.5000,0.0466971
612.0000,0.0473536
611.5000,0.0476278
611.0000,0.0482437
610.5000,0.047863
610.0000,0.0481102
609.5000,0.0483737
609.0000,0.0482876
608.5000,0.0494143
608.0000,0.0498025
607.5000,0.0508755
607.0000,0.0515403
606.5000,0.0518473
606.0000,0.0523631
605.5000,0.0529264
605.0000,0.0532348
604.5000,0.0538618
604.0000,0.0540187
603.5000,0.05464
603.0000,0.055261
602.5000,0.0555789
602.0000,0.0561622
601.5000,0.0565094
601.0000,0.0571518
600.5000,0.05696
600.0000,0.057908
599.5000,0.0580988
599.0000,0.0588943
598.5000,0.0593661
598.0000,0.0598628
597.5000,0.0602208
597.0000,0.0605584
596.5000,0.060821
596.0000,0.0608803
595.5000,0.0614477
595.0000,0.0620005
594.5000,0.0628391
594.0000,0.0631139
593.5000,0.0638354
593.0000,0.0637575
592.5000,0.0654113
592.0000,0.0659569
591.5000,0.066873
591.0000,0.0664979
590.5000,0.0669307
590.0000,0.0668581
589.5000,0.0677998
589.0000,0.0679767
588.5000,0.0691865
588.0000,0.069164
587.5000,0.0690845
587.0000,0.0690979
586.5000,0.0701631
586.0000,0.0712198
585.5000,0.071507
585.0000,0.0715004
584.5000,0.0724706
584.0000,0.0729557
583.5000,0.0739096
583.0000,0.0735834
582.5000,0.0743107
582.0000,0.0746681
581.5000,0.075189
581.0000,0.0751758
580.5000,0.076064
580.0000,0.0761047
579.5000,0.0765231
579.0000,0.076558
578.5000,0.0770623
578.0000,0.0785044
577.5000,0.0795811
577.0000,0.0804899
576.5000,0.0801026
576.0000,0.0805273
575.5000,0.0802421
575.0000,0.0807306
574.5000,0.0821563
574.0000,0.0829129
573.5000,0.0835917
573.0000,0.0833451
572.5000,0.08402
572.0000,0.0847995
571.5000,0.0859207
571.0000,0.0862392
570.5000,0.0869491
570.0000,0.0872827
569.5000,0.0879538
569.0000,0.0880412
568.5000,0.0888387
568.0000,0.0894533
567.5000,0.0903096
567.0000,0.0909404
566.5000,0.0920292
566.0000,0.0925989
565.5000,0.0936873
565.0000,0.0942442
564.5000,0.0945259
564.0000,0.0951225
563.5000,0.0950535
563.0000,0.095811
562.5000,0.0966956
562.0000,0.0973638
561.5000,0.0985799
561.0000,0.0992509
560.5000,0.100802
560.0000,0.100852
559.5000,0.101806
559.0000,0.101993
558.5000,0.103698
558.0000,0.104295
557.5000,0.105611
557.0000,0.106014
556.5000,0.106683
556.0000,0.106931
555.5000,0.108057
555.0000,0.109061
554.5000,0.110385
554.0000,0.110535
553.5000,0.111776
553.0000,0.112872
552.5000,0.114497
552.0000,0.115358
551.5000,0.117128
551.0000,0.117894
550.5000,0.118263
550.0000,0.119074
549.5000,0.120077
549.0000,0.120736
548.5000,0.121828
548.0000,0.122642
547.5000,0.124405
547.0000,0.125292
546.5000,0.126822
546.0000,0.128568
545.5000,0.130121
545.0000,0.130496
544.5000,0.131637
544.0000,0.131836
543.5000,0.134063
543.0000,0.13512
542.5000,0.136501
542.0000,0.13735
541.5000,0.137981
541.0000,0.139676
540.5000,0.141186
540.0000,0.142367
539.5000,0.144712
539.0000,0.14584
538.5000,0.147262
538.0000,0.147918
537.5000,0.148893
537.0000,0.150541
536.5000,0.152026
536.0000,0.152937
535.5000,0.154263
535.0000,0.155901
534.5000,0.157883
534.0000,0.159449
533.5000,0.160773
533.0000,0.161934
532.5000,0.162919
532.0000,0.16401
531.5000,0.165296
531.0000,0.166128
530.5000,0.167456
530.0000,0.168788
529.5000,0.170666
529.0000,0.172444
528.5000,0.174203
528.0000,0.174856
527.5000,0.176504
527.0000,0.177276
526.5000,0.179144
526.0000,0.179217
525.5000,0.180585
525.0000,0.181846
524.5000,0.184053
524.0000,0.185039
523.5000,0.186794
523.0000,0.187688
522.5000,0.189011
522.0000,0.189615
521.5000,0.190586
521.0000,0.191476
520.5000,0.193258
520.0000,0.194082
519.5000,0.195433
519.0000,0.195949
518.5000,0.195422
518.0000,0.197111
517.5000,0.198301
517.0000,0.199856
516.5000,0.200866
516.0000,0.201887
515.5000,0.202728
515.0000,0.203016
514.5000,0.203386
514.0000,0.203523
513.5000,0.203786
513.0000,0.204244
512.5000,0.204939
512.0000,0.205195
511.5000,0.20597
511.0000,0.206188
510.5000,0.207016
510.0000,0.207736
509.5000,0.209445
509.0000,0.209298
508.5000,0.209412
508.0000,0.209589
507.5000,0.210012
507.0000,0.210088
506.5000,0.209899
506.0000,0.209874
505.5000,0.210122
505.0000,0.210227
504.5000,0.210584
504.0000,0.210438
503.5000,0.210489
503.0000,0.210626
502.5000,0.210404
502.0000,0.210134
501.5000,0.209835
501.0000,0.209424
500.5000,0.209531
500.0000,0.208969
499.5000,0.209584
499.0000,0.209268
498.5000,0.209658
498.0000,0.208865
497.5000,0.208692
497.0000,0.20849
496.5000,0.209074
496.0000,0.209049
495.5000,0.209334
495.0000,0.20855
494.5000,0.207981
494.0000,0.207536
493.5000,0.207551
493.0000,0.207255
492.5000,0.206055
492.0000,0.206752
491.5000,0.205923
491.0000,0.205907
490.5000,0.204928
490.0000,0.205472
489.5000,0.205172
489.0000,0.205171
488.5000,0.204177
488.0000,0.204315
487.5000,0.203796
487.0000,0.203386
486.5000,0.203652
486.0000,0.203684
485.5000,0.203201
485.0000,0.202303
484.5000,0.201298
484.0000,0.201153
483.5000,0.200703
483.0000,0.200952
482.5000,0.200438
482.0000,0.200087
481.5000,0.199769
481.0000,0.199302
480.5000,0.199012
480.0000,0.19823
479.5000,0.198935
479.0000,0.198415
478.5000,0.198368
478.0000,0.197261
477.5000,0.196172
477.0000,0.195638
476.5000,0.195995
476.0000,0.196595
475.5000,0.196193
475.0000,0.1951
474.5000,0.194198
474.0000,0.193488
473.5000,0.194586
473.0000,0.193802
472.5000,0.194069
472.0000,0.192597
471.5000,0.19227
471.0000,0.191601
470.5000,0.191268
470.0000,0.190781
469.5000,0.190642
469.0000,0.189825
468.5000,0.189281
468.0000,0.189279
467.5000,0.189227
467.0000,0.188519
466.5000,0.188118
466.0000,0.187407
465.5000,0.187654
465.0000,0.187984
464.5000,0.187043
464.0000,0.186993
463.5000,0.185428
463.0000,0.185519
462.5000,0.185136
462.0000,0.184444
461.5000,0.183932
461.0000,0.18374
460.5000,0.184236
460.0000,0.184064
459.5000,0.183533
459.0000,0.183165
458.5000,0.182145
458.0000,0.182284
457.5000,0.182108
457.0000,0.181501
456.5000,0.180854
456.0000,0.179412
455.5000,0.178619
455.0000,0.178352
454.5000,0.178085
454.0000,0.177609
453.5000,0.178051
453.0000,0.178155
452.5000,0.17729
452.0000,0.176539
451.5000,0.175398
451.0000,0.17566
450.5000,0.17537
450.0000,0.175145
449.5000,0.174771
449.0000,0.174267
448.5000,0.17321
448.0000,0.17225
447.5000,0.171776
447.0000,0.171659
446.5000,0.171242
446.0000,0.170666
445.5000,0.17016
445.0000,0.169451
444.5000,0.16898
444.0000,0.169227
443.5000,0.168582
443.0000,0.168396
442.5000,0.167637
442.0000,0.166557
441.5000,0.165767
441.0000,0.165286
440.5000,0.166207
440.0000,0.166552
439.5000,0.166501
439.0000,0.166918
438.5000,0.165959
438.0000,0.165008
437.5000,0.163783
437.0000,0.16289
436.5000,0.162277
436.0000,0.161865
435.5000,0.162998
435.0000,0.162456
434.5000,0.162648
434.0000,0.161123
433.5000,0.160639
433.0000,0.161011
432.5000,0.161252
432.0000,0.161303
431.5000,0.161085
431.0000,0.160776
430.5000,0.15999
430.0000,0.159502
429.5000,0.158768
429.0000,0.159022
428.5000,0.158809
428.0000,0.158908
427.5000,0.158792
427.0000,0.158667
426.5000,0.158878
426.0000,0.158325
425.5000,0.15936
425.0000,0.159718
424.5000,0.159904
424.0000,0.159238
423.5000,0.157679
423.0000,0.157111
422.5000,0.156735
422.0000,0.157026
421.5000,0.156538
421.0000,0.155771
420.5000,0.155748
420.0000,0.156809
419.5000,0.15808
419.0000,0.157984
418.5000,0.15871
418.0000,0.157386
417.5000,0.156453
417.0000,0.15634
416.5000,0.157403
416.0000,0.158072
415.5000,0.158169
415.0000,0.157646
414.5000,0.157482
414.0000,0.157953
413.5000,0.157678
413.0000,0.15757
412.5000,0.156864
412.0000,0.156615
411.5000,0.157111
411.0000,0.158026
410.5000,0.159177
410.0000,0.158416
409.5000,0.157193
409.0000,0.156447
408.5000,0.157305
408.0000,0.156839
407.5000,0.157217
407.0000,0.157014
406.5000,0.158328
406.0000,0.159669
405.5000,0.16168
405.0000,0.162241
404.5000,0.163837
404.0000,0.163032
403.5000,0.161984
403.0000,0.162256
402.5000,0.163437
402.0000,0.164237
401.5000,0.16431
401.0000,0.164242
400.5000,0.164786
400.0000,0.165051
399.5000,0.166009
399.0000,0.167036
398.5000,0.167865
398.0000,0.169238
397.5000,0.16916
397.0000,0.170196
396.5000,0.170524
396.0000,0.17155
395.5000,0.172608
395.0000,0.173364
394.5000,0.174545
394.0000,0.175405
393.5000,0.177411
393.0000,0.177733
392.5000,0.179209
392.0000,0.180271
391.5000,0.181929
391.0000,0.182208
390.5000,0.182196
390.0000,0.183841
389.5000,0.185566
389.0000,0.187841
388.5000,0.188182
388.0000,0.188466
387.5000,0.188792
387.0000,0.189953
386.5000,0.192766
386.0000,0.1933
385.5000,0.195811
385.0000,0.196
384.5000,0.199073
384.0000,0.200344
383.5000,0.201639
383.0000,0.203063
382.5000,0.204659
382.0000,0.204564
381.5000,0.206297
381.0000,0.206986
380.5000,0.207281
380.0000,0.207987
379.5000,0.211114
379.0000,0.213704
378.5000,0.215151
378.0000,0.215523
377.5000,0.217419
377.0000,0.219609
376.5000,0.220493
376.0000,0.221088
375.5000,0.219823
375.0000,0.221667
374.5000,0.223766
374.0000,0.224454
373.5000,0.225206
373.0000,0.225889
372.5000,0.227034
372.0000,0.228056
371.5000,0.230139
371.0000,0.2301
370.5000,0.231826
370.0000,0.234691
369.5000,0.237872
369.0000,0.238155
368.5000,0.238861
368.0000,0.240218
367.5000,0.243595
367.0000,0.244649
366.5000,0.242691
366.0000,0.243414
365.5000,0.24186
365.0000,0.241694
364.5000,0.2419
364.0000,0.244194
363.5000,0.24777
363.0000,0.248562
362.5000,0.246859
362.0000,0.245218
361.5000,0.245657
361.0000,0.246121
360.5000,0.244997
360.0000,0.246041
359.5000,0.249793
359.0000,0.253602
358.5000,0.254851
358.0000,0.255508
357.5000,0.254048
357.0000,0.25112
356.5000,0.248666
356.0000,0.247661
355.5000,0.249634
355.0000,0.248912
354.5000,0.249672
354.0000,0.247576
353.5000,0.249494
353.0000,0.25013
352.5000,0.253047
352.0000,0.252114
351.5000,0.250899
351.0000,0.248472
350.5000,0.248931
350.0000,0.248579
349.5000,0.251019
349.0000,0.249032
348.5000,0.249134
348.0000,0.247207
347.5000,0.24622
347.0000,0.247446
346.5000,0.249277
346.0000,0.24755
345.5000,0.245448
345.0000,0.246186
344.5000,0.245336
344.0000,0.245693
343.5000,0.245983
343.0000,0.243973
342.5000,0.245389
342.0000,0.241552
341.5000,0.242691
341.0000,0.240515
340.5000,0.237075
340.0000,0.230848
339.5000,0.230026
339.0000,0.229478
338.5000,0.229043
338.0000,0.227154
337.5000,0.225777
337.0000,0.224834
336.5000,0.224006
336.0000,0.223047
335.5000,0.220585
335.0000,0.218884
334.5000,0.216949
334.0000,0.214773
333.5000,0.21355
333.0000,0.213034
332.5000,0.212124
332.0000,0.211466
331.5000,0.209631
331.0000,0.209594
330.5000,0.208237
330.0000,0.207456
329.5000,0.205515
329.0000,0.204346
328.5000,0.202746
328.0000,0.203012
327.5000,0.201608
327.0000,0.200978
326.5000,0.199305
326.0000,0.199591
325.5000,0.198609
325.0000,0.198214
324.5000,0.198102
324.0000,0.198628
323.5000,0.197797
323.0000,0.198734
322.5000,0.200587
322.0000,0.202044
321.5000,0.202308
321.0000,0.202403
320.5000,0.203178
320.0000,0.204997
319.5000,0.207012
319.0000,0.209522
318.5000,0.21192
318.0000,0.214844
317.5000,0.218819
317.0000,0.220821
316.5000,0.225161
316.0000,0.227172
315.5000,0.231032
315.0000,0.233194
314.5000,0.237499
314.0000,0.242019
313.5000,0.249826
313.0000,0.254691
312.5000,0.261944
312.0000,0.266868
311.5000,0.275457
311.0000,0.281419
310.5000,0.29315
310.0000,0.300919
309.5000,0.315061
309.0000,0.325074
308.5000,0.342393
308.0000,0.355963
307.5000,0.377478
307.0000,0.393271
306.5000,0.420602
306.0000,0.440095
305.5000,0.474335
305.0000,0.499282
304.5000,0.540417
304.0000,0.571112
303.5000,0.62084
303.0000,0.658961
302.5000,0.72102
302.0000,0.764569
301.5000,0.831712
301.0000,0.878852
300.5000,0.953779
300.0000,1.00322

##### Extended Information
[Comments]
Sample name
Comment
User
Division
Company,Glasgow University

[Detailed Information]
Creation date,13/09/2021 17:51

Data array type,Linear data array
Horizontal axis,Wavelength [nm]
Vertical axis,Abs
Start,900 nm
End,300 nm
Data interval,0.5 nm
Data points,1201    

[Measurement Information]
Instrument name,Jasco V-670
Model name,V-670
Serial No.,A007061154

Measurement date,13/09/2021 17:51

Photometric mode,Abs
Measurement range,900 - 300 nm
Data interval,0.5 nm
UV/Vis bandwidth,0.5 nm
NIR bandwidth,2.0 nm
Response,Fast
Scan speed,400 nm/min
Change source at,340 nm
Change grating at,850 nm
Light source,D2/WI
Filter exchange,Step
Correction,Baseline

