TITLE,
DATA TYPE,ULTRAVIOLET SPECTRUM
ORIGIN,JASCO
OWNER,
DATE,22/05/13
TIME,18:46:03
SPECTROMETER/DATA SYSTEM,
LOCALE,2057
RESOLUTION,
DELTAX,-0.5
XUNITS,NANOMETERS
YUNITS,ABSORBANCE
FIRSTX,  850.0000
LASTX,  300.0000
NPOINTS,    1101
FIRSTY,     0.06010
MAXY,     0.15212
MINY,     0.01244
XYDATA
850.0000,0.0601028
849.5000,0.0602438
849.0000,0.060375
848.5000,0.0604808
848.0000,0.0605483
847.5000,0.0606241
847.0000,0.0608676
846.5000,0.0611885
846.0000,0.0612685
845.5000,0.0614187
845.0000,0.0615626
844.5000,0.0616761
844.0000,0.0619284
843.5000,0.0621961
843.0000,0.062214
842.5000,0.0623001
842.0000,0.0624847
841.5000,0.0626821
841.0000,0.0629013
840.5000,0.0631904
840.0000,0.0633882
839.5000,0.0635731
839.0000,0.0637296
838.5000,0.0638981
838.0000,0.0641018
837.5000,0.0642911
837.0000,0.0645841
836.5000,0.0646951
836.0000,0.0648544
835.5000,0.0650081
835.0000,0.0652515
834.5000,0.0654523
834.0000,0.0656626
833.5000,0.0658538
833.0000,0.0659999
832.5000,0.0662029
832.0000,0.0664
831.5000,0.066665
831.0000,0.0669154
830.5000,0.0671318
830.0000,0.0672423
829.5000,0.0674563
829.0000,0.0676728
828.5000,0.0678623
828.0000,0.0680603
827.5000,0.0681848
827.0000,0.0683586
826.5000,0.0685215
826.0000,0.0687933
825.5000,0.0689981
825.0000,0.069198
824.5000,0.0694639
824.0000,0.0696924
823.5000,0.0698331
823.0000,0.070038
822.5000,0.070224
822.0000,0.0704271
821.5000,0.0706061
821.0000,0.0708173
820.5000,0.0709802
820.0000,0.0711729
819.5000,0.0714085
819.0000,0.071657
818.5000,0.0718723
818.0000,0.0720776
817.5000,0.0722777
817.0000,0.072446
816.5000,0.0726911
816.0000,0.0729234
815.5000,0.073138
815.0000,0.0732919
814.5000,0.0734774
814.0000,0.0736895
813.5000,0.0739105
813.0000,0.0741299
812.5000,0.0743186
812.0000,0.074511
811.5000,0.0747241
811.0000,0.0749269
810.5000,0.0752548
810.0000,0.0754084
809.5000,0.0755676
809.0000,0.0758021
808.5000,0.0759876
808.0000,0.0761898
807.5000,0.0764128
807.0000,0.0766543
806.5000,0.0767772
806.0000,0.076989
805.5000,0.07723
805.0000,0.0774017
804.5000,0.0776026
804.0000,0.0778168
803.5000,0.078011
803.0000,0.0782086
802.5000,0.0784623
802.0000,0.0786826
801.5000,0.0789123
801.0000,0.0790972
800.5000,0.0793045
800.0000,0.0794974
799.5000,0.0796325
799.0000,0.0797731
798.5000,0.0798908
798.0000,0.0800331
797.5000,0.080215
797.0000,0.080415
796.5000,0.0805991
796.0000,0.0808118
795.5000,0.0809728
795.0000,0.0812122
794.5000,0.0814809
794.0000,0.0817327
793.5000,0.0818143
793.0000,0.0820016
792.5000,0.0821169
792.0000,0.0822827
791.5000,0.082496
791.0000,0.0826296
790.5000,0.0827622
790.0000,0.0829083
789.5000,0.0831499
789.0000,0.0832933
788.5000,0.0835017
788.0000,0.0836057
787.5000,0.0837755
787.0000,0.0839506
786.5000,0.0840935
786.0000,0.0842555
785.5000,0.0843741
785.0000,0.084548
784.5000,0.0846886
784.0000,0.0848388
783.5000,0.0850214
783.0000,0.0850995
782.5000,0.0852053
782.0000,0.0853262
781.5000,0.0854302
781.0000,0.0855323
780.5000,0.0856264
780.0000,0.0857491
779.5000,0.0858463
779.0000,0.0859761
778.5000,0.0861305
778.0000,0.0861597
777.5000,0.0862828
777.0000,0.0864087
776.5000,0.0865154
776.0000,0.0866318
775.5000,0.0867429
775.0000,0.0868755
774.5000,0.0869648
774.0000,0.087129
773.5000,0.0872129
773.0000,0.0872723
772.5000,0.0873986
772.0000,0.0874159
771.5000,0.0874905
771.0000,0.0874991
770.5000,0.0875237
770.0000,0.0876029
769.5000,0.087724
769.0000,0.0878141
768.5000,0.0878835
768.0000,0.0879934
767.5000,0.0880316
767.0000,0.0881407
766.5000,0.0882558
766.0000,0.088337
765.5000,0.0884193
765.0000,0.0884347
764.5000,0.0884894
764.0000,0.0885458
763.5000,0.0886228
763.0000,0.08868
762.5000,0.0887051
762.0000,0.0887511
761.5000,0.0887905
761.0000,0.0888892
760.5000,0.0889577
760.0000,0.0889867
759.5000,0.0890311
759.0000,0.0890632
758.5000,0.0891162
758.0000,0.0891506
757.5000,0.0891476
757.0000,0.089159
756.5000,0.0891876
756.0000,0.0892006
755.5000,0.0891496
755.0000,0.0891784
754.5000,0.0891338
754.0000,0.0891707
753.5000,0.0892052
753.0000,0.0891981
752.5000,0.0891766
752.0000,0.0891973
751.5000,0.0892534
751.0000,0.0892428
750.5000,0.0892905
750.0000,0.0892738
749.5000,0.0892521
749.0000,0.0892522
748.5000,0.0892666
748.0000,0.0892877
747.5000,0.089271
747.0000,0.0892304
746.5000,0.0891916
746.0000,0.0891369
745.5000,0.0890838
745.0000,0.0890414
744.5000,0.0889516
744.0000,0.0888926
743.5000,0.0888426
743.0000,0.0888327
742.5000,0.0887945
742.0000,0.0887306
741.5000,0.0887165
741.0000,0.088686
740.5000,0.0886647
740.0000,0.0886699
739.5000,0.0885833
739.0000,0.0885182
738.5000,0.0885054
738.0000,0.0884186
737.5000,0.088344
737.0000,0.0883098
736.5000,0.0882307
736.0000,0.0882118
735.5000,0.0882106
735.0000,0.0881437
734.5000,0.0880789
734.0000,0.0880081
733.5000,0.0879684
733.0000,0.0879182
732.5000,0.0878549
732.0000,0.0877948
731.5000,0.0877058
731.0000,0.0876902
730.5000,0.087639
730.0000,0.0875985
729.5000,0.0874991
729.0000,0.0873995
728.5000,0.0873055
728.0000,0.0871966
727.5000,0.0871332
727.0000,0.0870125
726.5000,0.0869126
726.0000,0.0868028
725.5000,0.0867412
725.0000,0.086672
724.5000,0.0866047
724.0000,0.0865244
723.5000,0.0864215
723.0000,0.0863369
722.5000,0.0862356
722.0000,0.0861411
721.5000,0.0860387
721.0000,0.0859316
720.5000,0.0858523
720.0000,0.0857637
719.5000,0.0857061
719.0000,0.0856559
718.5000,0.085571
718.0000,0.0854767
717.5000,0.0853949
717.0000,0.0853091
716.5000,0.0852199
716.0000,0.0850969
715.5000,0.0849853
715.0000,0.0848276
714.5000,0.0847322
714.0000,0.0846627
713.5000,0.0845257
713.0000,0.0843961
712.5000,0.0842801
712.0000,0.084207
711.5000,0.0840919
711.0000,0.0840151
710.5000,0.0839077
710.0000,0.0837557
709.5000,0.0836761
709.0000,0.0835655
708.5000,0.0834618
708.0000,0.08335
707.5000,0.0832347
707.0000,0.0831249
706.5000,0.082996
706.0000,0.0829015
705.5000,0.0827922
705.0000,0.0826943
704.5000,0.0825841
704.0000,0.0824812
703.5000,0.0823408
703.0000,0.0821999
702.5000,0.0820886
702.0000,0.0819695
701.5000,0.0818105
701.0000,0.0816841
700.5000,0.0815515
700.0000,0.0814008
699.5000,0.0812901
699.0000,0.0811844
698.5000,0.0810393
698.0000,0.0809075
697.5000,0.0807913
697.0000,0.0806705
696.5000,0.080522
696.0000,0.0803932
695.5000,0.0802652
695.0000,0.0801303
694.5000,0.0800524
694.0000,0.0799311
693.5000,0.0798301
693.0000,0.0796962
692.5000,0.0795748
692.0000,0.0794324
691.5000,0.0793134
691.0000,0.07916
690.5000,0.0790117
690.0000,0.0788465
689.5000,0.0786828
689.0000,0.0785463
688.5000,0.0784224
688.0000,0.078274
687.5000,0.0781424
687.0000,0.0780072
686.5000,0.0778485
686.0000,0.0777078
685.5000,0.0775642
685.0000,0.077423
684.5000,0.0772796
684.0000,0.0771353
683.5000,0.0769868
683.0000,0.0768334
682.5000,0.0766812
682.0000,0.0765592
681.5000,0.0764453
681.0000,0.0763022
680.5000,0.0761668
680.0000,0.0760087
679.5000,0.0758449
679.0000,0.0756667
678.5000,0.075533
678.0000,0.0754043
677.5000,0.0752161
677.0000,0.075054
676.5000,0.0749053
676.0000,0.074805
675.5000,0.0746436
675.0000,0.0745633
674.5000,0.0743962
674.0000,0.0742442
673.5000,0.0741074
673.0000,0.0739652
672.5000,0.0738064
672.0000,0.0736467
671.5000,0.0735136
671.0000,0.0733279
670.5000,0.0731737
670.0000,0.0730098
669.5000,0.0728714
669.0000,0.0726754
668.5000,0.0725311
668.0000,0.0723479
667.5000,0.0721709
667.0000,0.0720323
666.5000,0.0719096
666.0000,0.0717586
665.5000,0.0716086
665.0000,0.071478
664.5000,0.0712904
664.0000,0.0711436
663.5000,0.0710039
663.0000,0.0708149
662.5000,0.0706191
662.0000,0.0704285
661.5000,0.0702426
661.0000,0.0700796
660.5000,0.0699355
660.0000,0.0697624
659.5000,0.0696112
659.0000,0.0694679
658.5000,0.0692852
658.0000,0.0691271
657.5000,0.0689435
657.0000,0.0687325
656.5000,0.0685259
656.0000,0.0683488
655.5000,0.068144
655.0000,0.0679475
654.5000,0.0677813
654.0000,0.0675966
653.5000,0.0674331
653.0000,0.0672867
652.5000,0.0671291
652.0000,0.0669544
651.5000,0.0667668
651.0000,0.0665972
650.5000,0.0664051
650.0000,0.0661893
649.5000,0.0659961
649.0000,0.0658148
648.5000,0.0656274
648.0000,0.0654309
647.5000,0.065236
647.0000,0.0650309
646.5000,0.0648693
646.0000,0.0647006
645.5000,0.0645221
645.0000,0.0643046
644.5000,0.0640793
644.0000,0.0639248
643.5000,0.0637393
643.0000,0.0635586
642.5000,0.0633588
642.0000,0.0631582
641.5000,0.0629298
641.0000,0.0627754
640.5000,0.0626125
640.0000,0.062377
639.5000,0.0621884
639.0000,0.0619808
638.5000,0.0617722
638.0000,0.0615554
637.5000,0.0613675
637.0000,0.0611569
636.5000,0.0609758
636.0000,0.0607692
635.5000,0.0605645
635.0000,0.0603634
634.5000,0.0601463
634.0000,0.059979
633.5000,0.0597572
633.0000,0.0595396
632.5000,0.0592992
632.0000,0.0591392
631.5000,0.0589163
631.0000,0.0587062
630.5000,0.0585211
630.0000,0.0582895
629.5000,0.0581045
629.0000,0.0579076
628.5000,0.0577146
628.0000,0.0574662
627.5000,0.0572493
627.0000,0.0570248
626.5000,0.0567798
626.0000,0.0565775
625.5000,0.056348
625.0000,0.0561513
624.5000,0.055903
624.0000,0.0556953
623.5000,0.0554946
623.0000,0.0553124
622.5000,0.0551156
622.0000,0.0549319
621.5000,0.0547453
621.0000,0.0545074
620.5000,0.0543017
620.0000,0.0540637
619.5000,0.0538618
619.0000,0.0536282
618.5000,0.0534278
618.0000,0.0531928
617.5000,0.0529678
617.0000,0.052751
616.5000,0.0525551
616.0000,0.0523644
615.5000,0.0521212
615.0000,0.0519445
614.5000,0.0517119
614.0000,0.0514923
613.5000,0.0512829
613.0000,0.0510554
612.5000,0.0508423
612.0000,0.0506203
611.5000,0.05045
611.0000,0.0501915
610.5000,0.05001
610.0000,0.0498074
609.5000,0.0495891
609.0000,0.0493828
608.5000,0.0491571
608.0000,0.0489316
607.5000,0.0487178
607.0000,0.048545
606.5000,0.0483155
606.0000,0.0480911
605.5000,0.0478721
605.0000,0.0476699
604.5000,0.0474848
604.0000,0.0472559
603.5000,0.0470218
603.0000,0.0467922
602.5000,0.0465648
602.0000,0.046383
601.5000,0.0461539
601.0000,0.0459144
600.5000,0.0456945
600.0000,0.0453934
599.5000,0.0451735
599.0000,0.044979
598.5000,0.0447884
598.0000,0.0445866
597.5000,0.0443884
597.0000,0.0442025
596.5000,0.0439859
596.0000,0.0437713
595.5000,0.0435944
595.0000,0.0434223
594.5000,0.0432538
594.0000,0.0430323
593.5000,0.0428346
593.0000,0.0426128
592.5000,0.0424026
592.0000,0.0422254
591.5000,0.0420335
591.0000,0.0418072
590.5000,0.0415993
590.0000,0.0414188
589.5000,0.0412235
589.0000,0.0410549
588.5000,0.0408817
588.0000,0.040669
587.5000,0.0404155
587.0000,0.0402145
586.5000,0.0400168
586.0000,0.0398257
585.5000,0.0396223
585.0000,0.039382
584.5000,0.0391812
584.0000,0.0389859
583.5000,0.0388228
583.0000,0.0386188
582.5000,0.0384103
582.0000,0.0382183
581.5000,0.0380343
581.0000,0.0378455
580.5000,0.0376292
580.0000,0.037461
579.5000,0.0373009
579.0000,0.0371233
578.5000,0.0369415
578.0000,0.0367244
577.5000,0.0365714
577.0000,0.0364021
576.5000,0.0362481
576.0000,0.0360819
575.5000,0.0358952
575.0000,0.0357258
574.5000,0.0355385
574.0000,0.0354134
573.5000,0.0352088
573.0000,0.0350625
572.5000,0.034902
572.0000,0.0347124
571.5000,0.0345557
571.0000,0.0344171
570.5000,0.0342588
570.0000,0.0340865
569.5000,0.0339285
569.0000,0.0337225
568.5000,0.0335437
568.0000,0.0333986
567.5000,0.0332428
567.0000,0.0330497
566.5000,0.0329147
566.0000,0.03274
565.5000,0.032585
565.0000,0.0324303
564.5000,0.0322819
564.0000,0.0321348
563.5000,0.0319719
563.0000,0.0318282
562.5000,0.0316489
562.0000,0.0315077
561.5000,0.0313549
561.0000,0.0312268
560.5000,0.0310967
560.0000,0.0309274
559.5000,0.0307963
559.0000,0.0306263
558.5000,0.0304735
558.0000,0.0303394
557.5000,0.0301973
557.0000,0.0300395
556.5000,0.0298772
556.0000,0.0297376
555.5000,0.0295674
555.0000,0.0294665
554.5000,0.0293402
554.0000,0.0291781
553.5000,0.0290229
553.0000,0.0288858
552.5000,0.0287652
552.0000,0.028616
551.5000,0.0285059
551.0000,0.0283631
550.5000,0.0282301
550.0000,0.0281239
549.5000,0.0280139
549.0000,0.0279209
548.5000,0.0277594
548.0000,0.02767
547.5000,0.027532
547.0000,0.0274051
546.5000,0.027304
546.0000,0.0271912
545.5000,0.0271143
545.0000,0.0269913
544.5000,0.0269162
544.0000,0.0267835
543.5000,0.0266904
543.0000,0.0265613
542.5000,0.0264723
542.0000,0.0263423
541.5000,0.0261824
541.0000,0.0260714
540.5000,0.0259629
540.0000,0.0258551
539.5000,0.0257412
539.0000,0.0256524
538.5000,0.0255186
538.0000,0.0254149
537.5000,0.025316
537.0000,0.0252483
536.5000,0.0251547
536.0000,0.0250776
535.5000,0.0250194
535.0000,0.0249347
534.5000,0.024818
534.0000,0.0247397
533.5000,0.0246541
533.0000,0.0245514
532.5000,0.0244486
532.0000,0.0243545
531.5000,0.024244
531.0000,0.0241569
530.5000,0.0240945
530.0000,0.0240213
529.5000,0.0239216
529.0000,0.0238313
528.5000,0.0237518
528.0000,0.0236428
527.5000,0.023535
527.0000,0.0234637
526.5000,0.023395
526.0000,0.0233197
525.5000,0.0232561
525.0000,0.0231751
524.5000,0.0230881
524.0000,0.0230404
523.5000,0.0229744
523.0000,0.0229038
522.5000,0.0228243
522.0000,0.0227428
521.5000,0.0226768
521.0000,0.0226205
520.5000,0.0225402
520.0000,0.0224245
519.5000,0.0223214
519.0000,0.02229
518.5000,0.0222566
518.0000,0.0221596
517.5000,0.0221141
517.0000,0.0220574
516.5000,0.0220208
516.0000,0.0219197
515.5000,0.0218725
515.0000,0.0218173
514.5000,0.0217505
514.0000,0.0217076
513.5000,0.0216125
513.0000,0.0215669
512.5000,0.0214959
512.0000,0.0214793
511.5000,0.0213886
511.0000,0.0212993
510.5000,0.0212449
510.0000,0.021198
509.5000,0.0211518
509.0000,0.0210986
508.5000,0.0210503
508.0000,0.0209673
507.5000,0.020917
507.0000,0.0208801
506.5000,0.0208036
506.0000,0.0207418
505.5000,0.0207072
505.0000,0.0206288
504.5000,0.02056
504.0000,0.0205252
503.5000,0.0205022
503.0000,0.0204821
502.5000,0.0204788
502.0000,0.0204314
501.5000,0.0204158
501.0000,0.0203944
500.5000,0.0203637
500.0000,0.0202842
499.5000,0.0202881
499.0000,0.0202362
498.5000,0.0201736
498.0000,0.0201464
497.5000,0.0200631
497.0000,0.0200099
496.5000,0.0200058
496.0000,0.0199863
495.5000,0.0199063
495.0000,0.0198298
494.5000,0.0197891
494.0000,0.0197441
493.5000,0.019705
493.0000,0.0196637
492.5000,0.0196094
492.0000,0.0195697
491.5000,0.0195121
491.0000,0.0194821
490.5000,0.0194501
490.0000,0.0193945
489.5000,0.0193587
489.0000,0.0193446
488.5000,0.0192886
488.0000,0.0192632
487.5000,0.0192124
487.0000,0.0191863
486.5000,0.0191591
486.0000,0.0191392
485.5000,0.0191225
485.0000,0.0190731
484.5000,0.0190306
484.0000,0.0189924
483.5000,0.0190199
483.0000,0.0189864
482.5000,0.0189474
482.0000,0.018891
481.5000,0.018828
481.0000,0.0187943
480.5000,0.018782
480.0000,0.018735
479.5000,0.0186758
479.0000,0.0186613
478.5000,0.0186458
478.0000,0.0186216
477.5000,0.0186295
477.0000,0.0186055
476.5000,0.018593
476.0000,0.0185574
475.5000,0.0185183
475.0000,0.0184729
474.5000,0.0184204
474.0000,0.0184069
473.5000,0.0183416
473.0000,0.0183122
472.5000,0.0182586
472.0000,0.0182602
471.5000,0.0182301
471.0000,0.0181831
470.5000,0.018168
470.0000,0.0181169
469.5000,0.0181361
469.0000,0.0181112
468.5000,0.0180735
468.0000,0.0180013
467.5000,0.0179669
467.0000,0.0179342
466.5000,0.0178859
466.0000,0.0178536
465.5000,0.0177753
465.0000,0.0177187
464.5000,0.0176756
464.0000,0.0176484
463.5000,0.0176022
463.0000,0.0175526
462.5000,0.0174958
462.0000,0.0174657
461.5000,0.017426
461.0000,0.0174084
460.5000,0.0173761
460.0000,0.01733
459.5000,0.0172969
459.0000,0.0172987
458.5000,0.0172754
458.0000,0.0172384
457.5000,0.017187
457.0000,0.0171132
456.5000,0.0170926
456.0000,0.0170668
455.5000,0.0170711
455.0000,0.0170021
454.5000,0.0169624
454.0000,0.0169355
453.5000,0.0169511
453.0000,0.016918
452.5000,0.0168954
452.0000,0.0168392
451.5000,0.016748
451.0000,0.0167329
450.5000,0.0167112
450.0000,0.016659
449.5000,0.0166033
449.0000,0.0165783
448.5000,0.0165191
448.0000,0.0165002
447.5000,0.0164686
447.0000,0.0164156
446.5000,0.0163804
446.0000,0.01632
445.5000,0.0162794
445.0000,0.0162541
444.5000,0.0162337
444.0000,0.0161907
443.5000,0.0161699
443.0000,0.0161338
442.5000,0.0160857
442.0000,0.0160665
441.5000,0.0160062
441.0000,0.0159285
440.5000,0.0158763
440.0000,0.0158368
439.5000,0.0158032
439.0000,0.0157596
438.5000,0.0157357
438.0000,0.0156865
437.5000,0.0157006
437.0000,0.0156902
436.5000,0.0156436
436.0000,0.0156242
435.5000,0.0155765
435.0000,0.0155292
434.5000,0.015466
434.0000,0.0154159
433.5000,0.0153387
433.0000,0.0152582
432.5000,0.0152245
432.0000,0.0151774
431.5000,0.0151303
431.0000,0.0151192
430.5000,0.0150749
430.0000,0.0150449
429.5000,0.0149959
429.0000,0.0150093
428.5000,0.0149302
428.0000,0.0148733
427.5000,0.0148284
427.0000,0.0147295
426.5000,0.0146916
426.0000,0.0146251
425.5000,0.0145853
425.0000,0.0145036
424.5000,0.014483
424.0000,0.0144211
423.5000,0.01438
423.0000,0.0143544
422.5000,0.0143304
422.0000,0.0143131
421.5000,0.0142415
421.0000,0.0141812
420.5000,0.0141846
420.0000,0.0142614
419.5000,0.0141823
419.0000,0.0141245
418.5000,0.0140777
418.0000,0.0140376
417.5000,0.0140335
417.0000,0.0139482
416.5000,0.0139084
416.0000,0.0139238
415.5000,0.0139127
415.0000,0.0138992
414.5000,0.0138249
414.0000,0.0137412
413.5000,0.01365
413.0000,0.0135931
412.5000,0.0135219
412.0000,0.0134648
411.5000,0.0134267
411.0000,0.01336
410.5000,0.013308
410.0000,0.0133032
409.5000,0.0132911
409.0000,0.0132368
408.5000,0.0132024
408.0000,0.0131022
407.5000,0.0130461
407.0000,0.0130049
406.5000,0.0129693
406.0000,0.0129621
405.5000,0.0129089
405.0000,0.0129224
404.5000,0.0128827
404.0000,0.0128775
403.5000,0.0128392
403.0000,0.0128548
402.5000,0.0128543
402.0000,0.0128171
401.5000,0.012847
401.0000,0.0128104
400.5000,0.0128253
400.0000,0.0128398
399.5000,0.0128402
399.0000,0.0128006
398.5000,0.0128307
398.0000,0.0127632
397.5000,0.0126787
397.0000,0.0126557
396.5000,0.0125798
396.0000,0.0125534
395.5000,0.0125155
395.0000,0.0125158
394.5000,0.0124379
394.0000,0.0124717
393.5000,0.0124822
393.0000,0.012515
392.5000,0.0125668
392.0000,0.012543
391.5000,0.0125631
391.0000,0.0125475
390.5000,0.0125352
390.0000,0.0125553
389.5000,0.0126023
389.0000,0.012592
388.5000,0.0125736
388.0000,0.0126494
387.5000,0.0126671
387.0000,0.0127177
386.5000,0.0128011
386.0000,0.0128016
385.5000,0.0128323
385.0000,0.0128499
384.5000,0.0129505
384.0000,0.0129886
383.5000,0.0130424
383.0000,0.0130837
382.5000,0.0131287
382.0000,0.0132307
381.5000,0.0132925
381.0000,0.0133881
380.5000,0.0134214
380.0000,0.0135494
379.5000,0.0136393
379.0000,0.0137628
378.5000,0.0138332
378.0000,0.0139509
377.5000,0.0140045
377.0000,0.0140917
376.5000,0.0141909
376.0000,0.0143033
375.5000,0.0144316
375.0000,0.0145207
374.5000,0.0146493
374.0000,0.01474
373.5000,0.0148845
373.0000,0.0150812
372.5000,0.015271
372.0000,0.015368
371.5000,0.0155004
371.0000,0.0156683
370.5000,0.0158498
370.0000,0.0163631
369.5000,0.0165511
369.0000,0.0167367
368.5000,0.016876
368.0000,0.0170883
367.5000,0.0172217
367.0000,0.01736
366.5000,0.0175439
366.0000,0.017745
365.5000,0.0179463
365.0000,0.0182125
364.5000,0.0184901
364.0000,0.0186869
363.5000,0.0189913
363.0000,0.019291
362.5000,0.0195663
362.0000,0.0198
361.5000,0.020069
361.0000,0.0202733
360.5000,0.0204541
360.0000,0.0207723
359.5000,0.0209534
359.0000,0.0212232
358.5000,0.0214049
358.0000,0.0216794
357.5000,0.021933
357.0000,0.0222625
356.5000,0.0225997
356.0000,0.0228944
355.5000,0.0231673
355.0000,0.0233971
354.5000,0.0237896
354.0000,0.0240866
353.5000,0.0244469
353.0000,0.0247599
352.5000,0.0251386
352.0000,0.0254763
351.5000,0.025898
351.0000,0.0262932
350.5000,0.0266527
350.0000,0.0271316
349.5000,0.0274605
349.0000,0.0278447
348.5000,0.0281843
348.0000,0.0285968
347.5000,0.0290953
347.0000,0.02964
346.5000,0.0300652
346.0000,0.0305061
345.5000,0.031041
345.0000,0.0315377
344.5000,0.0320605
344.0000,0.0326075
343.5000,0.0331052
343.0000,0.0336125
342.5000,0.0342045
342.0000,0.0347472
341.5000,0.0353606
341.0000,0.0359972
340.5000,0.0366523
340.0000,0.0396742
339.5000,0.0395236
339.0000,0.0402397
338.5000,0.0412745
338.0000,0.0416783
337.5000,0.0427328
337.0000,0.0432433
336.5000,0.0441688
336.0000,0.0451751
335.5000,0.0465379
335.0000,0.0481053
334.5000,0.0486199
334.0000,0.0498515
333.5000,0.0506977
333.0000,0.051717
332.5000,0.0524288
332.0000,0.0534775
331.5000,0.0550075
331.0000,0.055385
330.5000,0.0564068
330.0000,0.0571987
329.5000,0.0581474
329.0000,0.0597899
328.5000,0.0612358
328.0000,0.0631218
327.5000,0.0641692
327.0000,0.0657271
326.5000,0.0679199
326.0000,0.0701312
325.5000,0.0718993
325.0000,0.0732452
324.5000,0.0749612
324.0000,0.076133
323.5000,0.077617
323.0000,0.0791894
322.5000,0.0808666
322.0000,0.082261
321.5000,0.0837352
321.0000,0.085874
320.5000,0.0876508
320.0000,0.0893108
319.5000,0.0917086
319.0000,0.0937746
318.5000,0.0953428
318.0000,0.0974925
317.5000,0.0997234
317.0000,0.101582
316.5000,0.103229
316.0000,0.105873
315.5000,0.10797
315.0000,0.109891
314.5000,0.111369
314.0000,0.113027
313.5000,0.11448
313.0000,0.115982
312.5000,0.117598
312.0000,0.118507
311.5000,0.119355
311.0000,0.120873
310.5000,0.123336
310.0000,0.124877
309.5000,0.126556
309.0000,0.128229
308.5000,0.130304
308.0000,0.131984
307.5000,0.133627
307.0000,0.135207
306.5000,0.136094
306.0000,0.137526
305.5000,0.138866
305.0000,0.139794
304.5000,0.140949
304.0000,0.142734
303.5000,0.144106
303.0000,0.145803
302.5000,0.147268
302.0000,0.148314
301.5000,0.149544
301.0000,0.150283
300.5000,0.15137
300.0000,0.152121

##### Extended Information
[Comments]
Sample name
Comment
User
Division
Company,Glasgow University

[Detailed Information]
Creation date,13/05/2022 18:46

Data array type,Linear data array
Horizontal axis,Wavelength [nm]
Vertical axis,Abs
Start,850 nm
End,300 nm
Data interval,0.5 nm
Data points,1101    

[Measurement Information]
Instrument name,Jasco V-670
Model name,V-670
Serial No.,A007061154

Measurement date,13/05/2022 18:45

Photometric mode,Abs
Measurement range,850 - 300 nm
Data interval,0.5 nm
UV/Vis bandwidth,2.0 nm
NIR bandwidth,8.0 nm
Response,Fast
Scan speed,1000 nm/min
Change source at,340 nm
Change grating at,850 nm
Light source,D2/WI
Filter exchange,Step
Correction,Baseline

