TITLE,
DATA TYPE,ULTRAVIOLET SPECTRUM
ORIGIN,JASCO
OWNER,
DATE,22/05/13
TIME,18:40:48
SPECTROMETER/DATA SYSTEM,
LOCALE,2057
RESOLUTION,
DELTAX,-0.5
XUNITS,NANOMETERS
YUNITS,ABSORBANCE
FIRSTX,  850.0000
LASTX,  300.0000
NPOINTS,    1101
FIRSTY,     0.19997
MAXY,     0.29241
MINY,     0.03725
XYDATA
850.0000,0.199968
849.5000,0.200272
849.0000,0.20061
848.5000,0.200937
848.0000,0.20113
847.5000,0.201472
847.0000,0.201752
846.5000,0.202098
846.0000,0.202481
845.5000,0.202898
845.0000,0.2032
844.5000,0.203557
844.0000,0.20398
843.5000,0.204274
843.0000,0.20467
842.5000,0.204963
842.0000,0.205328
841.5000,0.20548
841.0000,0.205847
840.5000,0.20622
840.0000,0.206578
839.5000,0.206956
839.0000,0.207186
838.5000,0.207484
838.0000,0.207914
837.5000,0.208334
837.0000,0.208838
836.5000,0.209151
836.0000,0.209511
835.5000,0.20986
835.0000,0.210259
834.5000,0.21071
834.0000,0.211012
833.5000,0.211414
833.0000,0.211671
832.5000,0.211987
832.0000,0.212348
831.5000,0.212727
831.0000,0.21314
830.5000,0.213442
830.0000,0.213715
829.5000,0.214028
829.0000,0.214388
828.5000,0.214761
828.0000,0.215022
827.5000,0.215318
827.0000,0.215606
826.5000,0.21593
826.0000,0.216323
825.5000,0.216702
825.0000,0.216994
824.5000,0.217372
824.0000,0.217767
823.5000,0.218093
823.0000,0.218453
822.5000,0.218805
822.0000,0.219124
821.5000,0.219453
821.0000,0.219821
820.5000,0.220125
820.0000,0.220399
819.5000,0.220762
819.0000,0.221082
818.5000,0.221449
818.0000,0.221783
817.5000,0.222065
817.0000,0.222275
816.5000,0.222626
816.0000,0.223033
815.5000,0.223296
815.0000,0.22364
814.5000,0.223864
814.0000,0.224192
813.5000,0.224535
813.0000,0.224914
812.5000,0.225178
812.0000,0.225455
811.5000,0.225799
811.0000,0.226087
810.5000,0.226473
810.0000,0.226722
809.5000,0.22706
809.0000,0.227355
808.5000,0.227647
808.0000,0.227955
807.5000,0.228202
807.0000,0.228483
806.5000,0.228776
806.0000,0.229091
805.5000,0.229331
805.0000,0.229567
804.5000,0.229842
804.0000,0.230101
803.5000,0.230417
803.0000,0.230668
802.5000,0.230922
802.0000,0.231108
801.5000,0.231429
801.0000,0.231711
800.5000,0.231987
800.0000,0.232219
799.5000,0.232451
799.0000,0.232699
798.5000,0.232907
798.0000,0.233168
797.5000,0.233338
797.0000,0.233564
796.5000,0.233806
796.0000,0.234055
795.5000,0.234242
795.0000,0.23445
794.5000,0.234657
794.0000,0.234898
793.5000,0.234999
793.0000,0.235207
792.5000,0.235323
792.0000,0.235562
791.5000,0.235739
791.0000,0.235924
790.5000,0.236091
790.0000,0.236259
789.5000,0.236526
789.0000,0.236686
788.5000,0.236933
788.0000,0.236997
787.5000,0.237171
787.0000,0.237326
786.5000,0.237533
786.0000,0.237659
785.5000,0.23778
785.0000,0.237929
784.5000,0.238013
784.0000,0.238174
783.5000,0.238346
783.0000,0.238436
782.5000,0.238519
782.0000,0.238664
781.5000,0.238764
781.0000,0.238887
780.5000,0.238992
780.0000,0.239058
779.5000,0.239172
779.0000,0.239275
778.5000,0.239401
778.0000,0.239449
777.5000,0.239505
777.0000,0.239554
776.5000,0.239608
776.0000,0.239696
775.5000,0.239745
775.0000,0.239823
774.5000,0.239917
774.0000,0.240045
773.5000,0.24011
773.0000,0.240181
772.5000,0.240245
772.0000,0.240267
771.5000,0.240282
771.0000,0.24031
770.5000,0.240275
770.0000,0.240278
769.5000,0.240339
769.0000,0.240347
768.5000,0.240394
768.0000,0.240396
767.5000,0.240439
767.0000,0.240484
766.5000,0.240514
766.0000,0.240523
765.5000,0.240515
765.0000,0.240494
764.5000,0.240446
764.0000,0.240449
763.5000,0.240382
763.0000,0.240331
762.5000,0.240271
762.0000,0.240255
761.5000,0.240243
761.0000,0.240253
760.5000,0.240227
760.0000,0.240213
759.5000,0.240202
759.0000,0.240136
758.5000,0.240135
758.0000,0.240063
757.5000,0.23997
757.0000,0.239866
756.5000,0.239869
756.0000,0.239745
755.5000,0.239669
755.0000,0.239613
754.5000,0.239445
754.0000,0.239355
753.5000,0.239303
753.0000,0.23927
752.5000,0.239136
752.0000,0.239071
751.5000,0.238996
751.0000,0.238896
750.5000,0.238848
750.0000,0.238786
749.5000,0.238679
749.0000,0.238515
748.5000,0.238416
748.0000,0.238333
747.5000,0.238176
747.0000,0.238052
746.5000,0.237902
746.0000,0.23776
745.5000,0.237591
745.0000,0.237441
744.5000,0.237257
744.0000,0.237109
743.5000,0.23697
743.0000,0.236819
742.5000,0.236723
742.0000,0.236531
741.5000,0.236365
741.0000,0.236239
740.5000,0.236118
740.0000,0.235995
739.5000,0.235831
739.0000,0.235637
738.5000,0.235496
738.0000,0.235303
737.5000,0.235093
737.0000,0.2349
736.5000,0.234682
736.0000,0.234543
735.5000,0.234425
735.0000,0.234288
734.5000,0.234123
734.0000,0.233934
733.5000,0.233795
733.0000,0.23367
732.5000,0.233502
732.0000,0.23334
731.5000,0.233115
731.0000,0.232899
730.5000,0.232684
730.0000,0.232537
729.5000,0.232312
729.0000,0.232101
728.5000,0.231939
728.0000,0.231715
727.5000,0.231541
727.0000,0.231335
726.5000,0.231141
726.0000,0.230884
725.5000,0.230706
725.0000,0.230487
724.5000,0.23027
724.0000,0.230076
723.5000,0.229836
723.0000,0.229679
722.5000,0.229416
722.0000,0.229217
721.5000,0.228991
721.0000,0.228753
720.5000,0.228556
720.0000,0.228323
719.5000,0.228106
719.0000,0.227876
718.5000,0.227689
718.0000,0.227453
717.5000,0.227209
717.0000,0.227002
716.5000,0.226734
716.0000,0.226497
715.5000,0.226298
715.0000,0.226063
714.5000,0.225849
714.0000,0.225664
713.5000,0.225453
713.0000,0.225199
712.5000,0.224991
712.0000,0.224795
711.5000,0.224523
711.0000,0.224305
710.5000,0.224045
710.0000,0.223779
709.5000,0.22353
709.0000,0.223299
708.5000,0.223042
708.0000,0.22275
707.5000,0.222516
707.0000,0.222255
706.5000,0.222004
706.0000,0.221758
705.5000,0.221495
705.0000,0.221257
704.5000,0.221015
704.0000,0.220775
703.5000,0.220511
703.0000,0.220257
702.5000,0.22
702.0000,0.219753
701.5000,0.219482
701.0000,0.219208
700.5000,0.218982
700.0000,0.218729
699.5000,0.21847
699.0000,0.218221
698.5000,0.217963
698.0000,0.217667
697.5000,0.217409
697.0000,0.217139
696.5000,0.216827
696.0000,0.216555
695.5000,0.216304
695.0000,0.216012
694.5000,0.215767
694.0000,0.215523
693.5000,0.215279
693.0000,0.215006
692.5000,0.214762
692.0000,0.214485
691.5000,0.214208
691.0000,0.213906
690.5000,0.213611
690.0000,0.213331
689.5000,0.213026
689.0000,0.212766
688.5000,0.212461
688.0000,0.212168
687.5000,0.211907
687.0000,0.211659
686.5000,0.211354
686.0000,0.211078
685.5000,0.210779
685.0000,0.210494
684.5000,0.210209
684.0000,0.209954
683.5000,0.209646
683.0000,0.209346
682.5000,0.20908
682.0000,0.208792
681.5000,0.208526
681.0000,0.208212
680.5000,0.207918
680.0000,0.207586
679.5000,0.207291
679.0000,0.206933
678.5000,0.206613
678.0000,0.206286
677.5000,0.205988
677.0000,0.205683
676.5000,0.205373
676.0000,0.205075
675.5000,0.204742
675.0000,0.204486
674.5000,0.204156
674.0000,0.203852
673.5000,0.203529
673.0000,0.203207
672.5000,0.202873
672.0000,0.202578
671.5000,0.202294
671.0000,0.201952
670.5000,0.201663
670.0000,0.201323
669.5000,0.201013
669.0000,0.200698
668.5000,0.200406
668.0000,0.200035
667.5000,0.199681
667.0000,0.199373
666.5000,0.199021
666.0000,0.198705
665.5000,0.198342
665.0000,0.197995
664.5000,0.19763
664.0000,0.197297
663.5000,0.196933
663.0000,0.196561
662.5000,0.196244
662.0000,0.195888
661.5000,0.195539
661.0000,0.195195
660.5000,0.194846
660.0000,0.19452
659.5000,0.194184
659.0000,0.193834
658.5000,0.193452
658.0000,0.193082
657.5000,0.192716
657.0000,0.192319
656.5000,0.191969
656.0000,0.191582
655.5000,0.191203
655.0000,0.190824
654.5000,0.190447
654.0000,0.190079
653.5000,0.189697
653.0000,0.189355
652.5000,0.188965
652.0000,0.188566
651.5000,0.188162
651.0000,0.18778
650.5000,0.18737
650.0000,0.186939
649.5000,0.186558
649.0000,0.186163
648.5000,0.185748
648.0000,0.185351
647.5000,0.184947
647.0000,0.184517
646.5000,0.184121
646.0000,0.183713
645.5000,0.183311
645.0000,0.182899
644.5000,0.182476
644.0000,0.18207
643.5000,0.181661
643.0000,0.181282
642.5000,0.18086
642.0000,0.180448
641.5000,0.179998
641.0000,0.179544
640.5000,0.179135
640.0000,0.178659
639.5000,0.178251
639.0000,0.177793
638.5000,0.177345
638.0000,0.176883
637.5000,0.176438
637.0000,0.176
636.5000,0.175569
636.0000,0.175177
635.5000,0.174718
635.0000,0.174282
634.5000,0.173836
634.0000,0.173409
633.5000,0.172958
633.0000,0.172461
632.5000,0.171985
632.0000,0.171543
631.5000,0.171089
631.0000,0.170614
630.5000,0.170167
630.0000,0.169702
629.5000,0.169228
629.0000,0.168791
628.5000,0.168352
628.0000,0.167858
627.5000,0.167351
627.0000,0.166866
626.5000,0.166369
626.0000,0.165889
625.5000,0.165409
625.0000,0.164956
624.5000,0.164435
624.0000,0.16393
623.5000,0.163465
623.0000,0.162997
622.5000,0.162517
622.0000,0.162037
621.5000,0.161596
621.0000,0.161089
620.5000,0.160621
620.0000,0.160124
619.5000,0.159661
619.0000,0.159165
618.5000,0.158692
618.0000,0.158201
617.5000,0.157676
617.0000,0.157186
616.5000,0.156699
616.0000,0.156215
615.5000,0.155677
615.0000,0.155218
614.5000,0.154689
614.0000,0.154159
613.5000,0.153663
613.0000,0.153145
612.5000,0.152641
612.0000,0.15213
611.5000,0.151668
611.0000,0.15111
610.5000,0.150624
610.0000,0.150148
609.5000,0.149642
609.0000,0.149133
608.5000,0.148598
608.0000,0.148075
607.5000,0.147545
607.0000,0.147082
606.5000,0.146555
606.0000,0.146041
605.5000,0.145532
605.0000,0.145
604.5000,0.144534
604.0000,0.144022
603.5000,0.143518
603.0000,0.142964
602.5000,0.142441
602.0000,0.141911
601.5000,0.141369
601.0000,0.140883
600.5000,0.140359
600.0000,0.139769
599.5000,0.139245
599.0000,0.138727
598.5000,0.138218
598.0000,0.137725
597.5000,0.137249
597.0000,0.13676
596.5000,0.136263
596.0000,0.135764
595.5000,0.135283
595.0000,0.134828
594.5000,0.134358
594.0000,0.133875
593.5000,0.133359
593.0000,0.132854
592.5000,0.132333
592.0000,0.131845
591.5000,0.131346
591.0000,0.130841
590.5000,0.130341
590.0000,0.129802
589.5000,0.129299
589.0000,0.12882
588.5000,0.128347
588.0000,0.127857
587.5000,0.127343
587.0000,0.126829
586.5000,0.126346
586.0000,0.125852
585.5000,0.12536
585.0000,0.124844
584.5000,0.12433
584.0000,0.123846
583.5000,0.123372
583.0000,0.122893
582.5000,0.122395
582.0000,0.121923
581.5000,0.12145
581.0000,0.120975
580.5000,0.12049
580.0000,0.119969
579.5000,0.119495
579.0000,0.119029
578.5000,0.118542
578.0000,0.118069
577.5000,0.117594
577.0000,0.117114
576.5000,0.116645
576.0000,0.11623
575.5000,0.115774
575.0000,0.115309
574.5000,0.114842
574.0000,0.114397
573.5000,0.113939
573.0000,0.113515
572.5000,0.1131
572.0000,0.112621
571.5000,0.112196
571.0000,0.111753
570.5000,0.111294
570.0000,0.110855
569.5000,0.11041
569.0000,0.109941
568.5000,0.109475
568.0000,0.10904
567.5000,0.108605
567.0000,0.108153
566.5000,0.10774
566.0000,0.107285
565.5000,0.106865
565.0000,0.106443
564.5000,0.10603
564.0000,0.105605
563.5000,0.105144
563.0000,0.104701
562.5000,0.104269
562.0000,0.103868
561.5000,0.103438
561.0000,0.103012
560.5000,0.102608
560.0000,0.102147
559.5000,0.10176
559.0000,0.101343
558.5000,0.100922
558.0000,0.100504
557.5000,0.100106
557.0000,0.0996855
556.5000,0.0992352
556.0000,0.0988711
555.5000,0.0984282
555.0000,0.0980632
554.5000,0.0976849
554.0000,0.0972654
553.5000,0.0968385
553.0000,0.0964456
552.5000,0.0960762
552.0000,0.095694
551.5000,0.0953075
551.0000,0.0949084
550.5000,0.0945121
550.0000,0.094156
549.5000,0.0938004
549.0000,0.0934357
548.5000,0.0930402
548.0000,0.0926797
547.5000,0.0923169
547.0000,0.0919487
546.5000,0.0916063
546.0000,0.0912335
545.5000,0.0908785
545.0000,0.0905325
544.5000,0.0901996
544.0000,0.0898199
543.5000,0.0894692
543.0000,0.0891286
542.5000,0.0887874
542.0000,0.0884421
541.5000,0.0880716
541.0000,0.0877356
540.5000,0.0873861
540.0000,0.0870636
539.5000,0.0867379
539.0000,0.0863898
538.5000,0.0860455
538.0000,0.0856991
537.5000,0.0853796
537.0000,0.085055
536.5000,0.0847663
536.0000,0.08445
535.5000,0.0841389
535.0000,0.0838379
534.5000,0.0834904
534.0000,0.0832099
533.5000,0.082892
533.0000,0.0825792
532.5000,0.0822465
532.0000,0.0819275
531.5000,0.0816206
531.0000,0.0813417
530.5000,0.0810786
530.0000,0.0807766
529.5000,0.0804974
529.0000,0.0802066
528.5000,0.0798997
528.0000,0.0796141
527.5000,0.0792829
527.0000,0.0789726
526.5000,0.078673
526.0000,0.0783681
525.5000,0.0780781
525.0000,0.0777589
524.5000,0.0774812
524.0000,0.0772289
523.5000,0.0769942
523.0000,0.0767181
522.5000,0.0764365
522.0000,0.0761716
521.5000,0.0758993
521.0000,0.0756483
520.5000,0.07539
520.0000,0.0749697
519.5000,0.074673
519.0000,0.0744473
518.5000,0.0742205
518.0000,0.0739211
517.5000,0.0736918
517.0000,0.0734625
516.5000,0.0732425
516.0000,0.0729989
515.5000,0.0727552
515.0000,0.0724889
514.5000,0.0722422
514.0000,0.0719929
513.5000,0.071702
513.0000,0.0714575
512.5000,0.0711941
512.0000,0.0709527
511.5000,0.0706976
511.0000,0.070438
510.5000,0.0701735
510.0000,0.0699548
509.5000,0.0697312
509.0000,0.0695098
508.5000,0.0692505
508.0000,0.0689897
507.5000,0.0687568
507.0000,0.0685101
506.5000,0.0682738
506.0000,0.0680659
505.5000,0.067813
505.0000,0.0675442
504.5000,0.0673034
504.0000,0.0670877
503.5000,0.0668553
503.0000,0.0666516
502.5000,0.0664584
502.0000,0.066204
501.5000,0.0660415
501.0000,0.0658316
500.5000,0.0656424
500.0000,0.0653833
499.5000,0.0651904
499.0000,0.0649859
498.5000,0.0647645
498.0000,0.0645714
497.5000,0.0643334
497.0000,0.0641448
496.5000,0.0639629
496.0000,0.0637939
495.5000,0.0635935
495.0000,0.0633854
494.5000,0.0631662
494.0000,0.0629369
493.5000,0.0627101
493.0000,0.0624784
492.5000,0.0622671
492.0000,0.0620531
491.5000,0.0618442
491.0000,0.06162
490.5000,0.0614466
490.0000,0.0612676
489.5000,0.0610927
489.0000,0.0609268
488.5000,0.0607417
488.0000,0.0605953
487.5000,0.0603632
487.0000,0.0601885
486.5000,0.059997
486.0000,0.0598031
485.5000,0.0596146
485.0000,0.0594088
484.5000,0.0592114
484.0000,0.0590052
483.5000,0.058854
483.0000,0.0586479
482.5000,0.0584555
482.0000,0.0582695
481.5000,0.0580682
481.0000,0.0578949
480.5000,0.0576848
480.0000,0.0574815
479.5000,0.057291
479.0000,0.0571408
478.5000,0.0569566
478.0000,0.0567747
477.5000,0.0566265
477.0000,0.0564534
476.5000,0.0562966
476.0000,0.0561297
475.5000,0.0559537
475.0000,0.0557844
474.5000,0.0556246
474.0000,0.0554791
473.5000,0.05528
473.0000,0.0550904
472.5000,0.054931
472.0000,0.0547678
471.5000,0.0546045
471.0000,0.0544115
470.5000,0.0542398
470.0000,0.0540413
469.5000,0.0538988
469.0000,0.0537555
468.5000,0.0535691
468.0000,0.0534038
467.5000,0.0532162
467.0000,0.0530564
466.5000,0.052883
466.0000,0.0527279
465.5000,0.0525299
465.0000,0.0523389
464.5000,0.0521753
464.0000,0.0519692
463.5000,0.0518079
463.0000,0.051619
462.5000,0.0514529
462.0000,0.0513053
461.5000,0.0511502
461.0000,0.0510283
460.5000,0.0508625
460.0000,0.0507232
459.5000,0.0505615
459.0000,0.0504366
458.5000,0.0502527
458.0000,0.0500817
457.5000,0.0499187
457.0000,0.0497157
456.5000,0.0495496
456.0000,0.0493886
455.5000,0.0492578
455.0000,0.0490601
454.5000,0.0489163
454.0000,0.0487614
453.5000,0.0486123
453.0000,0.0484716
452.5000,0.0483224
452.0000,0.0481863
451.5000,0.048032
451.0000,0.047904
450.5000,0.0477576
450.0000,0.0476407
449.5000,0.0475188
449.0000,0.0473733
448.5000,0.0472289
448.0000,0.0470897
447.5000,0.0469396
447.0000,0.0467972
446.5000,0.0466629
446.0000,0.0464859
445.5000,0.0463365
445.0000,0.0462029
444.5000,0.04607
444.0000,0.045911
443.5000,0.0457812
443.0000,0.0456428
442.5000,0.0455182
442.0000,0.0453905
441.5000,0.045211
441.0000,0.0450484
440.5000,0.0449262
440.0000,0.0447918
439.5000,0.0446402
439.0000,0.0444952
438.5000,0.0443588
438.0000,0.0441956
437.5000,0.0441146
437.0000,0.0439715
436.5000,0.0438202
436.0000,0.0436783
435.5000,0.0435698
435.0000,0.0434453
434.5000,0.0432869
434.0000,0.0431801
433.5000,0.0429912
433.0000,0.042861
432.5000,0.0426986
432.0000,0.0425789
431.5000,0.0424122
431.0000,0.0422735
430.5000,0.0421359
430.0000,0.0419992
429.5000,0.0418841
429.0000,0.0417846
428.5000,0.0416678
428.0000,0.0415289
427.5000,0.0414239
427.0000,0.0412907
426.5000,0.0411922
426.0000,0.0410394
425.5000,0.0409461
425.0000,0.0408202
424.5000,0.0407283
424.0000,0.0405958
423.5000,0.0404693
423.0000,0.040364
422.5000,0.0402578
422.0000,0.0401306
421.5000,0.0399726
421.0000,0.0398399
420.5000,0.0397325
420.0000,0.0397524
419.5000,0.0396376
419.0000,0.0395157
418.5000,0.0393961
418.0000,0.0393189
417.5000,0.0391599
417.0000,0.0390588
416.5000,0.0389986
416.0000,0.0389711
415.5000,0.0388988
415.0000,0.0387456
414.5000,0.0385743
414.0000,0.0383918
413.5000,0.0383468
413.0000,0.0382398
412.5000,0.0380754
412.0000,0.0379647
411.5000,0.037906
411.0000,0.037841
410.5000,0.0378112
410.0000,0.0378275
409.5000,0.0377881
409.0000,0.0377208
408.5000,0.0376771
408.0000,0.0376037
407.5000,0.0375236
407.0000,0.0374462
406.5000,0.0373692
406.0000,0.0373288
405.5000,0.0372569
405.0000,0.0372533
404.5000,0.0372763
404.0000,0.0373239
403.5000,0.0373081
403.0000,0.0373389
402.5000,0.037335
402.0000,0.0374101
401.5000,0.0374557
401.0000,0.0374919
400.5000,0.0375023
400.0000,0.0375371
399.5000,0.0375814
399.0000,0.0376214
398.5000,0.0377433
398.0000,0.0377215
397.5000,0.0377612
397.0000,0.0378413
396.5000,0.0379319
396.0000,0.0379889
395.5000,0.0380965
395.0000,0.03821
394.5000,0.0382995
394.0000,0.0384641
393.5000,0.0386556
393.0000,0.0387925
392.5000,0.0389304
392.0000,0.0390791
391.5000,0.039277
391.0000,0.0395012
390.5000,0.0396578
390.0000,0.0399067
389.5000,0.0401127
389.0000,0.040417
388.5000,0.0406921
388.0000,0.040997
387.5000,0.0412355
387.0000,0.0415862
386.5000,0.0419233
386.0000,0.042178
385.5000,0.0424743
385.0000,0.0427166
384.5000,0.043077
384.0000,0.0434134
383.5000,0.0437532
383.0000,0.0440363
382.5000,0.0444211
382.0000,0.0448863
381.5000,0.0453048
381.0000,0.0457875
380.5000,0.0462068
380.0000,0.0466876
379.5000,0.0471517
379.0000,0.0476462
378.5000,0.0480857
378.0000,0.048509
377.5000,0.0489293
377.0000,0.0493435
376.5000,0.0497751
376.0000,0.0502292
375.5000,0.0507666
375.0000,0.0512341
374.5000,0.0517169
374.0000,0.0522618
373.5000,0.0528265
373.0000,0.0533695
372.5000,0.0539173
372.0000,0.0544396
371.5000,0.0549641
371.0000,0.0555532
370.5000,0.0561547
370.0000,0.0568549
369.5000,0.0574716
369.0000,0.0581145
368.5000,0.0587765
368.0000,0.0594461
367.5000,0.0600381
367.0000,0.0605808
366.5000,0.0612182
366.0000,0.0619352
365.5000,0.0626359
365.0000,0.0632971
364.5000,0.063999
364.0000,0.0646509
363.5000,0.0653208
363.0000,0.0660681
362.5000,0.0667898
362.0000,0.0675232
361.5000,0.0681737
361.0000,0.0688433
360.5000,0.0695531
360.0000,0.0703833
359.5000,0.0711668
359.0000,0.0720235
358.5000,0.0728121
358.0000,0.0735938
357.5000,0.0744151
357.0000,0.0753907
356.5000,0.0762775
356.0000,0.0770609
355.5000,0.0779341
355.0000,0.0787143
354.5000,0.0795696
354.0000,0.0804708
353.5000,0.0814517
353.0000,0.0822914
352.5000,0.0832272
352.0000,0.0841883
351.5000,0.0851243
351.0000,0.0860563
350.5000,0.0870723
350.0000,0.0880614
349.5000,0.0890418
349.0000,0.0899877
348.5000,0.0909598
348.0000,0.0920267
347.5000,0.0931972
347.0000,0.0944134
346.5000,0.0954836
346.0000,0.0966192
345.5000,0.0977968
345.0000,0.0990194
344.5000,0.100202
344.0000,0.101398
343.5000,0.102554
343.0000,0.103765
342.5000,0.105081
342.0000,0.106379
341.5000,0.107747
341.0000,0.109102
340.5000,0.110575
340.0000,0.117276
339.5000,0.118236
339.0000,0.119972
338.5000,0.120788
338.0000,0.122241
337.5000,0.123805
337.0000,0.125882
336.5000,0.127635
336.0000,0.128952
335.5000,0.131757
335.0000,0.134037
334.5000,0.136182
334.0000,0.138455
333.5000,0.140602
333.0000,0.141639
332.5000,0.14334
332.0000,0.146115
331.5000,0.147241
331.0000,0.148471
330.5000,0.150366
330.0000,0.152034
329.5000,0.15331
329.0000,0.156758
328.5000,0.159437
328.0000,0.161252
327.5000,0.164403
327.0000,0.166864
326.5000,0.169479
326.0000,0.171926
325.5000,0.174538
325.0000,0.176658
324.5000,0.179761
324.0000,0.182894
323.5000,0.185094
323.0000,0.18801
322.5000,0.190897
322.0000,0.193906
321.5000,0.196956
321.0000,0.199419
320.5000,0.201459
320.0000,0.203692
319.5000,0.206411
319.0000,0.20899
318.5000,0.211149
318.0000,0.213823
317.5000,0.215889
317.0000,0.219067
316.5000,0.221633
316.0000,0.224564
315.5000,0.227768
315.0000,0.230359
314.5000,0.233106
314.0000,0.235307
313.5000,0.237772
313.0000,0.239084
312.5000,0.241412
312.0000,0.242983
311.5000,0.244273
311.0000,0.246502
310.5000,0.248755
310.0000,0.251209
309.5000,0.253163
309.0000,0.25635
308.5000,0.258831
308.0000,0.261041
307.5000,0.26353
307.0000,0.265706
306.5000,0.267719
306.0000,0.26937
305.5000,0.271944
305.0000,0.272705
304.5000,0.274118
304.0000,0.276961
303.5000,0.278813
303.0000,0.280797
302.5000,0.283396
302.0000,0.285138
301.5000,0.28735
301.0000,0.289744
300.5000,0.291283
300.0000,0.292406

##### Extended Information
[Comments]
Sample name
Comment
User
Division
Company,Glasgow University

[Detailed Information]
Creation date,13/05/2022 18:40

Data array type,Linear data array
Horizontal axis,Wavelength [nm]
Vertical axis,Abs
Start,850 nm
End,300 nm
Data interval,0.5 nm
Data points,1101    

[Measurement Information]
Instrument name,Jasco V-670
Model name,V-670
Serial No.,A007061154

Measurement date,13/05/2022 18:40

Photometric mode,Abs
Measurement range,850 - 300 nm
Data interval,0.5 nm
UV/Vis bandwidth,2.0 nm
NIR bandwidth,8.0 nm
Response,Fast
Scan speed,1000 nm/min
Change source at,340 nm
Change grating at,850 nm
Light source,D2/WI
Filter exchange,Step
Correction,Baseline

