TITLE,
DATA TYPE,ULTRAVIOLET SPECTRUM
ORIGIN,JASCO
OWNER,
DATE,22/05/13
TIME,18:34:55
SPECTROMETER/DATA SYSTEM,
LOCALE,2057
RESOLUTION,
DELTAX,-0.5
XUNITS,NANOMETERS
YUNITS,ABSORBANCE
FIRSTX,  850.0000
LASTX,  300.0000
NPOINTS,    1101
FIRSTY,     0.00686
MAXY,     0.05086
MINY,     0.00355
XYDATA
850.0000,0.00685905
849.5000,0.00697623
849.0000,0.00709208
848.5000,0.00707428
848.0000,0.00689949
847.5000,0.00688434
847.0000,0.00695044
846.5000,0.00704932
846.0000,0.0071807
845.5000,0.00712579
845.0000,0.00714815
844.5000,0.0071131
844.0000,0.0072336
843.5000,0.00736357
843.0000,0.00741794
842.5000,0.00742002
842.0000,0.00742336
841.5000,0.00740955
841.0000,0.00745672
840.5000,0.00758459
840.0000,0.00763858
839.5000,0.00759691
839.0000,0.00754799
838.5000,0.00756157
838.0000,0.0075588
837.5000,0.0076276
837.0000,0.0076462
836.5000,0.00761179
836.0000,0.00764224
835.5000,0.00771288
835.0000,0.00774062
834.5000,0.00775557
834.0000,0.00778034
833.5000,0.00778526
833.0000,0.00787784
832.5000,0.00787836
832.0000,0.00790515
831.5000,0.00785082
831.0000,0.00794179
830.5000,0.00795355
830.0000,0.007965
829.5000,0.00794672
829.0000,0.0079706
828.5000,0.00806081
828.0000,0.00803193
827.5000,0.00808593
827.0000,0.00806825
826.5000,0.00807374
826.0000,0.00813122
825.5000,0.00818482
825.0000,0.00815821
824.5000,0.00816405
824.0000,0.00825268
823.5000,0.00827151
823.0000,0.00831036
822.5000,0.00837787
822.0000,0.00840989
821.5000,0.00842883
821.0000,0.0085286
820.5000,0.00850938
820.0000,0.00851255
819.5000,0.00851716
819.0000,0.00859014
818.5000,0.00867328
818.0000,0.00867511
817.5000,0.00870565
817.0000,0.00861627
816.5000,0.00868044
816.0000,0.00879454
815.5000,0.00882018
815.0000,0.00882032
814.5000,0.00878141
814.0000,0.00884023
813.5000,0.00891167
813.0000,0.00903363
812.5000,0.00906727
812.0000,0.00901407
811.5000,0.00907106
811.0000,0.00908183
810.5000,0.00913898
810.0000,0.00915478
809.5000,0.00916491
809.0000,0.00921682
808.5000,0.00922087
808.0000,0.00931748
807.5000,0.00929254
807.0000,0.00933648
806.5000,0.00937328
806.0000,0.00936465
805.5000,0.00939942
805.0000,0.00941553
804.5000,0.00946006
804.0000,0.00945777
803.5000,0.00953204
803.0000,0.00955749
802.5000,0.00955729
802.0000,0.00963231
801.5000,0.00968754
801.0000,0.00971451
800.5000,0.00975986
800.0000,0.00984915
799.5000,0.00990107
799.0000,0.00998802
798.5000,0.00997662
798.0000,0.00995306
797.5000,0.00987777
797.0000,0.00987106
796.5000,0.00985618
796.0000,0.00984915
795.5000,0.00981493
795.0000,0.00980078
794.5000,0.00988963
794.0000,0.00995216
793.5000,0.00997852
793.0000,0.0100507
792.5000,0.0100758
792.0000,0.0101651
791.5000,0.0101998
791.0000,0.0102109
790.5000,0.0102041
790.0000,0.0102504
789.5000,0.0103478
789.0000,0.0103664
788.5000,0.0104027
788.0000,0.0103336
787.5000,0.0103526
787.0000,0.0104172
786.5000,0.010431
786.0000,0.0104433
785.5000,0.010453
785.0000,0.0105219
784.5000,0.0105519
784.0000,0.0105789
783.5000,0.0106614
783.0000,0.0106645
782.5000,0.0106575
782.0000,0.0106814
781.5000,0.0106291
781.0000,0.0106124
780.5000,0.0106322
780.0000,0.0106555
779.5000,0.0106326
779.0000,0.010608
778.5000,0.0106994
778.0000,0.0106556
777.5000,0.0107025
777.0000,0.0107087
776.5000,0.0106719
776.0000,0.0107015
775.5000,0.0107593
775.0000,0.010788
774.5000,0.0107989
774.0000,0.0108804
773.5000,0.0109269
773.0000,0.0109743
772.5000,0.0110338
772.0000,0.0110652
771.5000,0.0110473
771.0000,0.0110808
770.5000,0.0110347
770.0000,0.0110626
769.5000,0.0111111
769.0000,0.0111107
768.5000,0.0111137
768.0000,0.0110947
767.5000,0.0110715
767.0000,0.0110728
766.5000,0.0111478
766.0000,0.0111941
765.5000,0.0111567
765.0000,0.0111501
764.5000,0.0111337
764.0000,0.0112068
763.5000,0.0112385
763.0000,0.0112696
762.5000,0.0112375
762.0000,0.0112285
761.5000,0.0112601
761.0000,0.0112941
760.5000,0.0113174
760.0000,0.0113059
759.5000,0.0112992
759.0000,0.0112717
758.5000,0.0112828
758.0000,0.011304
757.5000,0.0112907
757.0000,0.0112908
756.5000,0.0113419
756.0000,0.0113245
755.5000,0.0113344
755.0000,0.0113915
754.5000,0.0113307
754.0000,0.0113079
753.5000,0.0113398
753.0000,0.0113472
752.5000,0.0113501
752.0000,0.0113309
751.5000,0.0113196
751.0000,0.0113178
750.5000,0.0114113
750.0000,0.0113915
749.5000,0.0113798
749.0000,0.0113498
748.5000,0.0113385
748.0000,0.0113841
747.5000,0.0114098
747.0000,0.0113723
746.5000,0.0113216
746.0000,0.011347
745.5000,0.0113269
745.0000,0.0113691
744.5000,0.0113539
744.0000,0.0113421
743.5000,0.0113385
743.0000,0.0113639
742.5000,0.01138
742.0000,0.0113517
741.5000,0.0113747
741.0000,0.0113642
740.5000,0.0113688
740.0000,0.0114131
739.5000,0.0114079
739.0000,0.0114026
738.5000,0.0114133
738.0000,0.0113577
737.5000,0.0113486
737.0000,0.0113245
736.5000,0.0112566
736.0000,0.0112258
735.5000,0.0112696
735.0000,0.0112486
734.5000,0.0112777
734.0000,0.0112741
733.5000,0.0112503
733.0000,0.0113114
732.5000,0.0113223
732.0000,0.0113687
731.5000,0.0113503
731.0000,0.0113464
730.5000,0.0112952
730.0000,0.011312
729.5000,0.0113043
729.0000,0.0112397
728.5000,0.011242
728.0000,0.011241
727.5000,0.0112447
727.0000,0.0112378
726.5000,0.0112319
726.0000,0.0112295
725.5000,0.011213
725.0000,0.0112232
724.5000,0.0112037
724.0000,0.0111638
723.5000,0.0111285
723.0000,0.0110977
722.5000,0.0110649
722.0000,0.0110417
721.5000,0.0110389
721.0000,0.0110446
720.5000,0.0110283
720.0000,0.0110195
719.5000,0.0110216
719.0000,0.0110426
718.5000,0.0110496
718.0000,0.0110239
717.5000,0.0109883
717.0000,0.0109591
716.5000,0.0109718
716.0000,0.0109348
715.5000,0.0109007
715.0000,0.0108448
714.5000,0.0108474
714.0000,0.01084
713.5000,0.010818
713.0000,0.0107831
712.5000,0.0107731
712.0000,0.0108222
711.5000,0.0108064
711.0000,0.0108318
710.5000,0.010817
710.0000,0.0108101
709.5000,0.0108177
709.0000,0.0108348
708.5000,0.0108325
708.0000,0.0107987
707.5000,0.0107763
707.0000,0.0107857
706.5000,0.0107688
706.0000,0.0107568
705.5000,0.0107386
705.0000,0.0107488
704.5000,0.0107391
704.0000,0.0107259
703.5000,0.0107166
703.0000,0.0106983
702.5000,0.0106892
702.0000,0.0106804
701.5000,0.0106735
701.0000,0.0106106
700.5000,0.0105707
700.0000,0.0105254
699.5000,0.0105033
699.0000,0.0104822
698.5000,0.0104575
698.0000,0.0104077
697.5000,0.0103973
697.0000,0.0104059
696.5000,0.0103826
696.0000,0.0103814
695.5000,0.0103906
695.0000,0.0103518
694.5000,0.0103218
694.0000,0.010308
693.5000,0.0102934
693.0000,0.0102687
692.5000,0.0102507
692.0000,0.0102204
691.5000,0.0102102
691.0000,0.010191
690.5000,0.0101527
690.0000,0.0101336
689.5000,0.010109
689.0000,0.0100964
688.5000,0.0100984
688.0000,0.0100905
687.5000,0.0100432
687.0000,0.0100192
686.5000,0.0100373
686.0000,0.0100366
685.5000,0.00998898
685.0000,0.00998242
684.5000,0.00993238
684.0000,0.00991036
683.5000,0.00989333
683.0000,0.00987244
682.5000,0.00980822
682.0000,0.00981493
681.5000,0.00980096
681.0000,0.00975761
680.5000,0.00974224
680.0000,0.00972098
679.5000,0.00971733
679.0000,0.00966687
678.5000,0.00967421
678.0000,0.00964998
677.5000,0.00964932
677.0000,0.00965424
676.5000,0.00964364
676.0000,0.00960952
675.5000,0.00958656
675.0000,0.00963717
674.5000,0.0096014
674.0000,0.00958588
673.5000,0.0095688
673.0000,0.00949601
672.5000,0.00945097
672.0000,0.00943723
671.5000,0.00942999
671.0000,0.00935857
670.5000,0.0093742
670.0000,0.00934062
669.5000,0.00934377
669.0000,0.0093466
668.5000,0.00935277
668.0000,0.00933723
667.5000,0.00932128
667.0000,0.00931799
666.5000,0.00927911
666.0000,0.0092621
665.5000,0.00922584
665.0000,0.00922527
664.5000,0.00921054
664.0000,0.00920314
663.5000,0.00914734
663.0000,0.00913076
662.5000,0.00911723
662.0000,0.00906676
661.5000,0.00904186
661.0000,0.00901219
660.5000,0.00899317
660.0000,0.00898634
659.5000,0.00902771
659.0000,0.00900027
658.5000,0.00898357
658.0000,0.00898797
657.5000,0.00895196
657.0000,0.00887659
656.5000,0.00882757
656.0000,0.00878609
655.5000,0.00868296
655.0000,0.00867695
654.5000,0.00864809
654.0000,0.00860903
653.5000,0.0085664
653.0000,0.00859019
652.5000,0.00858858
652.0000,0.00854352
651.5000,0.00852763
651.0000,0.00848608
650.5000,0.00845698
650.0000,0.00841853
649.5000,0.00843607
649.0000,0.00841912
648.5000,0.00838159
648.0000,0.00837047
647.5000,0.00837224
647.0000,0.008359
646.5000,0.008333
646.0000,0.00832811
645.5000,0.00830241
645.0000,0.00827769
644.5000,0.00824628
644.0000,0.00823807
643.5000,0.00820586
643.0000,0.0081874
642.5000,0.00817142
642.0000,0.00813182
641.5000,0.00808187
641.0000,0.0080587
640.5000,0.00802804
640.0000,0.00798344
639.5000,0.00797655
639.0000,0.00794785
638.5000,0.00791174
638.0000,0.00788205
637.5000,0.00785347
637.0000,0.00783294
636.5000,0.00782826
636.0000,0.00780337
635.5000,0.00775992
635.0000,0.00774028
634.5000,0.00771774
634.0000,0.00769658
633.5000,0.00765584
633.0000,0.00759876
632.5000,0.00756989
632.0000,0.00759683
631.5000,0.00758088
631.0000,0.00751139
630.5000,0.00750354
630.0000,0.00749127
629.5000,0.00749891
629.0000,0.0074563
628.5000,0.00744539
628.0000,0.00737157
627.5000,0.00731566
627.0000,0.00730291
626.5000,0.00727893
626.0000,0.00724073
625.5000,0.00716331
625.0000,0.00717183
624.5000,0.00709527
624.0000,0.0070622
623.5000,0.0070433
623.0000,0.00703912
622.5000,0.0069681
622.0000,0.00692614
621.5000,0.00694329
621.0000,0.00689312
620.5000,0.00689649
620.0000,0.00686607
619.5000,0.006845
619.0000,0.00677697
618.5000,0.00677004
618.0000,0.00676292
617.5000,0.00671725
617.0000,0.00669171
616.5000,0.0067006
616.0000,0.00666824
615.5000,0.00664392
615.0000,0.00664722
614.5000,0.00660497
614.0000,0.00656073
613.5000,0.00654493
613.0000,0.00653833
612.5000,0.00649605
612.0000,0.00647281
611.5000,0.00645744
611.0000,0.00642308
610.5000,0.00644878
610.0000,0.00644839
609.5000,0.00640903
609.0000,0.0063434
608.5000,0.00628484
608.0000,0.00624682
607.5000,0.00620623
607.0000,0.00619183
606.5000,0.00613912
606.0000,0.00609519
605.5000,0.00608848
605.0000,0.00610085
604.5000,0.00608961
604.0000,0.00607591
603.5000,0.00605785
603.0000,0.00601709
602.5000,0.00599242
602.0000,0.00597546
601.5000,0.00592895
601.0000,0.00588268
600.5000,0.00588112
600.0000,0.00579882
599.5000,0.00577517
599.0000,0.00574954
598.5000,0.00572757
598.0000,0.00570755
597.5000,0.00567361
597.0000,0.00567912
596.5000,0.0056602
596.0000,0.00563396
595.5000,0.00561158
595.0000,0.0056148
594.5000,0.00563174
594.0000,0.00560734
593.5000,0.00558287
593.0000,0.00554795
592.5000,0.00549709
592.0000,0.0054639
591.5000,0.00546347
591.0000,0.00544399
590.5000,0.00543113
590.0000,0.00541583
589.5000,0.00538522
589.0000,0.00537734
588.5000,0.00537122
588.0000,0.0053594
587.5000,0.00532093
587.0000,0.00528352
586.5000,0.00525336
586.0000,0.00521021
585.5000,0.00521414
585.0000,0.0051782
584.5000,0.00517467
584.0000,0.00516086
583.5000,0.00516187
583.0000,0.0051458
582.5000,0.00511722
582.0000,0.0051176
581.5000,0.0050707
581.0000,0.00508423
580.5000,0.00504256
580.0000,0.00501266
579.5000,0.00497601
579.0000,0.00495443
578.5000,0.00493848
578.0000,0.00490887
577.5000,0.00495908
577.0000,0.00492671
576.5000,0.00492425
576.0000,0.00495
575.5000,0.00495543
575.0000,0.00493553
574.5000,0.00491621
574.0000,0.00490606
573.5000,0.00482923
573.0000,0.00481184
572.5000,0.00482142
572.0000,0.00477007
571.5000,0.00476824
571.0000,0.00477305
570.5000,0.00474991
570.0000,0.00475509
569.5000,0.00476749
569.0000,0.0047381
568.5000,0.00470161
568.0000,0.00468437
567.5000,0.00467692
567.0000,0.00466054
566.5000,0.00468062
566.0000,0.00465042
565.5000,0.00462757
565.0000,0.00463363
564.5000,0.00462974
564.0000,0.00461983
563.5000,0.00459593
563.0000,0.00458266
562.5000,0.00454085
562.0000,0.00454129
561.5000,0.0045327
561.0000,0.00450033
560.5000,0.00450432
560.0000,0.00447233
559.5000,0.00447111
559.0000,0.00445133
558.5000,0.00444702
558.0000,0.00443161
557.5000,0.00441343
557.0000,0.00438474
556.5000,0.00435413
556.0000,0.00437695
555.5000,0.00432692
555.0000,0.00432504
554.5000,0.00432262
554.0000,0.00430037
553.5000,0.00428883
553.0000,0.00430119
552.5000,0.00429811
552.0000,0.00426919
551.5000,0.00426011
551.0000,0.00426179
550.5000,0.00424231
550.0000,0.00425601
549.5000,0.0042628
549.0000,0.00428266
548.5000,0.00426044
548.0000,0.00427605
547.5000,0.00427426
547.0000,0.00422156
546.5000,0.00422942
546.0000,0.00419493
545.5000,0.00420157
545.0000,0.00417926
544.5000,0.00419018
544.0000,0.00416439
543.5000,0.00417263
543.0000,0.0042038
542.5000,0.0042064
542.0000,0.00419132
541.5000,0.00416787
541.0000,0.0041716
540.5000,0.00417064
540.0000,0.00418179
539.5000,0.00417069
539.0000,0.00417163
538.5000,0.00417254
538.0000,0.00416132
537.5000,0.00415602
537.0000,0.00416594
536.5000,0.00416146
536.0000,0.00418992
535.5000,0.00421763
535.0000,0.00421987
534.5000,0.00418518
534.0000,0.0042445
533.5000,0.00423652
533.0000,0.00422268
532.5000,0.00422667
532.0000,0.00421456
531.5000,0.00418536
531.0000,0.00417903
530.5000,0.00422171
530.0000,0.00421053
529.5000,0.00422674
529.0000,0.00424923
528.5000,0.00423574
528.0000,0.00424586
527.5000,0.00425016
527.0000,0.0042586
526.5000,0.004251
526.0000,0.00424739
525.5000,0.00423458
525.0000,0.00420639
524.5000,0.00420107
524.0000,0.00417519
523.5000,0.00419736
523.0000,0.0042067
522.5000,0.0041951
522.0000,0.00419093
521.5000,0.00419049
521.0000,0.00421886
520.5000,0.00424538
520.0000,0.00430137
519.5000,0.0043141
519.0000,0.00433947
518.5000,0.00438362
518.0000,0.0043678
517.5000,0.00433427
517.0000,0.00436291
516.5000,0.0043937
516.0000,0.00441679
515.5000,0.0043966
515.0000,0.00439604
514.5000,0.00439419
514.0000,0.00437912
513.5000,0.00436941
513.0000,0.00440414
512.5000,0.00438321
512.0000,0.00439088
511.5000,0.00439429
511.0000,0.00437611
510.5000,0.00436259
510.0000,0.00437966
509.5000,0.0043937
509.0000,0.00439062
508.5000,0.00440597
508.0000,0.00439663
507.5000,0.00442607
507.0000,0.00445567
506.5000,0.00443444
506.0000,0.0044529
505.5000,0.00448489
505.0000,0.00447157
504.5000,0.00448649
504.0000,0.00450177
503.5000,0.00449821
503.0000,0.00450576
502.5000,0.00455471
502.0000,0.00456677
501.5000,0.00459054
501.0000,0.00460951
500.5000,0.00463295
500.0000,0.00460833
499.5000,0.00466077
499.0000,0.00467995
498.5000,0.00470007
498.0000,0.00471515
497.5000,0.00469763
497.0000,0.004717
496.5000,0.00471492
496.0000,0.00474497
495.5000,0.0046986
495.0000,0.00473179
494.5000,0.00473117
494.0000,0.00471134
493.5000,0.00472324
493.0000,0.00470222
492.5000,0.00471402
492.0000,0.00471708
491.5000,0.00474089
491.0000,0.00469685
490.5000,0.0047125
490.0000,0.0047363
489.5000,0.00474008
489.0000,0.00479959
488.5000,0.00482304
488.0000,0.00485591
487.5000,0.0048614
487.0000,0.00489121
486.5000,0.0049232
486.0000,0.00493647
485.5000,0.00498184
485.0000,0.00494978
484.5000,0.0049516
484.0000,0.0049687
483.5000,0.0050035
483.0000,0.00502088
482.5000,0.0050008
482.0000,0.00501568
481.5000,0.00499217
481.0000,0.00500592
480.5000,0.00502541
480.0000,0.00499302
479.5000,0.00495966
479.0000,0.00498038
478.5000,0.00501747
478.0000,0.00500508
477.5000,0.00505523
477.0000,0.00508577
476.5000,0.00511248
476.0000,0.00515175
475.5000,0.00518686
475.0000,0.00518767
474.5000,0.00517961
474.0000,0.00522502
473.5000,0.00518101
473.0000,0.00519341
472.5000,0.00518026
472.0000,0.00519475
471.5000,0.00521522
471.0000,0.00520285
470.5000,0.00522067
470.0000,0.00520496
469.5000,0.00525434
469.0000,0.00522872
468.5000,0.00523043
468.0000,0.00520135
467.5000,0.0051923
467.0000,0.0052023
466.5000,0.00518757
466.0000,0.00517586
465.5000,0.00515801
465.0000,0.00516436
464.5000,0.00515631
464.0000,0.00516363
463.5000,0.0051531
463.0000,0.00512897
462.5000,0.00510357
462.0000,0.00513759
461.5000,0.00515213
461.0000,0.00518968
460.5000,0.00520437
460.0000,0.00520183
459.5000,0.00520564
459.0000,0.00525871
458.5000,0.00528677
458.0000,0.00527309
457.5000,0.00526458
457.0000,0.00522751
456.5000,0.00521547
456.0000,0.00525579
455.5000,0.00527503
455.0000,0.00525655
454.5000,0.00525444
454.0000,0.00526346
453.5000,0.00526134
453.0000,0.00526391
452.5000,0.005285
452.0000,0.00525965
451.5000,0.00521069
451.0000,0.00521401
450.5000,0.00522087
450.0000,0.00521797
449.5000,0.00522704
449.0000,0.00525728
448.5000,0.00525314
448.0000,0.00524059
447.5000,0.00525463
447.0000,0.00523798
446.5000,0.00524134
446.0000,0.00520457
445.5000,0.00518241
445.0000,0.00514381
444.5000,0.00511938
444.0000,0.00515027
443.5000,0.00517504
443.0000,0.0051568
442.5000,0.00515601
442.0000,0.0051802
441.5000,0.00517191
441.0000,0.00515274
440.5000,0.00518733
440.0000,0.00515874
439.5000,0.00511807
439.0000,0.00511699
438.5000,0.00509786
438.0000,0.00508292
437.5000,0.00507658
437.0000,0.0050819
436.5000,0.00506917
436.0000,0.00504943
435.5000,0.00507495
435.0000,0.00506764
434.5000,0.00505498
434.0000,0.00504011
433.5000,0.00501664
433.0000,0.00496872
432.5000,0.00490188
432.0000,0.00491201
431.5000,0.00490155
431.0000,0.00490044
430.5000,0.00488957
430.0000,0.0048654
429.5000,0.00484576
429.0000,0.00487696
428.5000,0.00487066
428.0000,0.00483615
427.5000,0.00480863
427.0000,0.00478518
426.5000,0.00476555
426.0000,0.00474269
425.5000,0.00475049
425.0000,0.00475317
424.5000,0.0047621
424.0000,0.00476395
423.5000,0.0047616
423.0000,0.00470194
422.5000,0.00468396
422.0000,0.00465263
421.5000,0.00460642
421.0000,0.00455089
420.5000,0.00454001
420.0000,0.00461671
419.5000,0.00457506
419.0000,0.00457568
418.5000,0.00454246
418.0000,0.00451726
417.5000,0.00453249
417.0000,0.00449125
416.5000,0.00449887
416.0000,0.00454109
415.5000,0.00454961
415.0000,0.00446741
414.5000,0.00444089
414.0000,0.0043623
413.5000,0.00432087
413.0000,0.00431512
412.5000,0.00419414
412.0000,0.00415791
411.5000,0.00414434
411.0000,0.00416582
410.5000,0.00413817
410.0000,0.00416935
409.5000,0.00419528
409.0000,0.00419019
408.5000,0.00422173
408.0000,0.00417345
407.5000,0.00418892
407.0000,0.0041594
406.5000,0.00416901
406.0000,0.00412538
405.5000,0.00409231
405.0000,0.00410058
404.5000,0.00410977
404.0000,0.00415357
403.5000,0.00412834
403.0000,0.00413022
402.5000,0.00409849
402.0000,0.00411907
401.5000,0.00414519
401.0000,0.00414306
400.5000,0.00410761
400.0000,0.00406904
399.5000,0.0040222
399.0000,0.00399749
398.5000,0.00395189
398.0000,0.00387947
397.5000,0.00378722
397.0000,0.00371788
396.5000,0.0036794
396.0000,0.00368672
395.5000,0.0036636
395.0000,0.00363978
394.5000,0.0036542
394.0000,0.00371971
393.5000,0.00373021
393.0000,0.0037798
392.5000,0.0037828
392.0000,0.00370018
391.5000,0.00372477
391.0000,0.00368432
390.5000,0.00367335
390.0000,0.00360145
389.5000,0.00357587
389.0000,0.00356604
388.5000,0.00358121
388.0000,0.00362722
387.5000,0.00356861
387.0000,0.00365901
386.5000,0.00362392
386.0000,0.00365825
385.5000,0.00365904
385.0000,0.00359735
384.5000,0.00362895
384.0000,0.0036022
383.5000,0.00359329
383.0000,0.0035497
382.5000,0.00358593
382.0000,0.00359413
381.5000,0.00359531
381.0000,0.00367336
380.5000,0.00360599
380.0000,0.00364888
379.5000,0.00366533
379.0000,0.00364921
378.5000,0.00364347
378.0000,0.00367484
377.5000,0.00361847
377.0000,0.00357093
376.5000,0.00362472
376.0000,0.00359717
375.5000,0.00359072
375.0000,0.00359884
374.5000,0.00360027
374.0000,0.00358694
373.5000,0.00365084
373.0000,0.00364395
372.5000,0.00362569
372.0000,0.00365846
371.5000,0.00373354
371.0000,0.00379673
370.5000,0.00377527
370.0000,0.00391953
369.5000,0.00400342
369.0000,0.00398455
368.5000,0.00397187
368.0000,0.00393927
367.5000,0.0039951
367.0000,0.00400673
366.5000,0.00413104
366.0000,0.00416577
365.5000,0.00419583
365.0000,0.00422832
364.5000,0.00427756
364.0000,0.00434899
363.5000,0.00435726
363.0000,0.0042943
362.5000,0.004324
362.0000,0.0043979
361.5000,0.00447496
361.0000,0.00446284
360.5000,0.00447872
360.0000,0.00453548
359.5000,0.00458435
359.0000,0.00474074
358.5000,0.00468423
358.0000,0.00472136
357.5000,0.00472891
357.0000,0.00488967
356.5000,0.00496325
356.0000,0.00501573
355.5000,0.00508847
355.0000,0.00517268
354.5000,0.00529171
354.0000,0.00531248
353.5000,0.00539929
353.0000,0.00538615
352.5000,0.00550077
352.0000,0.00552908
351.5000,0.00558055
351.0000,0.00560208
350.5000,0.00567407
350.0000,0.00574756
349.5000,0.00575484
349.0000,0.00578764
348.5000,0.005811
348.0000,0.00593717
347.5000,0.00612505
347.0000,0.00626936
346.5000,0.0064216
346.0000,0.0065438
345.5000,0.00671711
345.0000,0.00683812
344.5000,0.00698093
344.0000,0.00711646
343.5000,0.0071353
343.0000,0.00721191
342.5000,0.00724092
342.0000,0.00732605
341.5000,0.00752418
341.0000,0.00773164
340.5000,0.00784712
340.0000,0.00896845
339.5000,0.00858914
339.0000,0.00898665
338.5000,0.00912782
338.0000,0.00902114
337.5000,0.0098906
337.0000,0.0100778
336.5000,0.00968713
336.0000,0.00951434
335.5000,0.01046
335.0000,0.0104101
334.5000,0.0104194
334.0000,0.0108474
333.5000,0.0109213
333.0000,0.0106638
332.5000,0.0111739
332.0000,0.0117527
331.5000,0.0116573
331.0000,0.011706
330.5000,0.011766
330.0000,0.0117866
329.5000,0.0118733
329.0000,0.0128623
328.5000,0.0131964
328.0000,0.0140757
327.5000,0.0147231
327.0000,0.015186
326.5000,0.0159731
326.0000,0.0164203
325.5000,0.0166266
325.0000,0.0169405
324.5000,0.0174135
324.0000,0.0172767
323.5000,0.0175264
323.0000,0.0177458
322.5000,0.0183113
322.0000,0.0188623
321.5000,0.019596
321.0000,0.0200662
320.5000,0.0206571
320.0000,0.0211205
319.5000,0.02208
319.0000,0.0229593
318.5000,0.0228213
318.0000,0.023776
317.5000,0.0236445
317.0000,0.0241275
316.5000,0.0243328
316.0000,0.0250161
315.5000,0.0256683
315.0000,0.0260253
314.5000,0.0271864
314.0000,0.027616
313.5000,0.0285435
313.0000,0.0293608
312.5000,0.0299736
312.0000,0.0308973
311.5000,0.0311867
311.0000,0.032087
310.5000,0.0328527
310.0000,0.0332703
309.5000,0.0338078
309.0000,0.0346058
308.5000,0.0360702
308.0000,0.0360364
307.5000,0.0367461
307.0000,0.037734
306.5000,0.0385719
306.0000,0.039685
305.5000,0.0410497
305.0000,0.0413821
304.5000,0.0420225
304.0000,0.0437013
303.5000,0.0447114
303.0000,0.045445
302.5000,0.046273
302.0000,0.0467914
301.5000,0.0477447
301.0000,0.0488898
300.5000,0.0500289
300.0000,0.050865

##### Extended Information
[Comments]
Sample name
Comment
User
Division
Company,Glasgow University

[Detailed Information]
Creation date,13/05/2022 18:34

Data array type,Linear data array
Horizontal axis,Wavelength [nm]
Vertical axis,Abs
Start,850 nm
End,300 nm
Data interval,0.5 nm
Data points,1101    

[Measurement Information]
Instrument name,Jasco V-670
Model name,V-670
Serial No.,A007061154

Measurement date,13/05/2022 18:34

Photometric mode,Abs
Measurement range,850 - 300 nm
Data interval,0.5 nm
UV/Vis bandwidth,2.0 nm
NIR bandwidth,8.0 nm
Response,Fast
Scan speed,1000 nm/min
Change source at,340 nm
Change grating at,850 nm
Light source,D2/WI
Filter exchange,Step
Correction,Baseline

