TITLE,
DATA TYPE,ULTRAVIOLET SPECTRUM
ORIGIN,JASCO
OWNER,
DATE,22/05/13
TIME,18:43:24
SPECTROMETER/DATA SYSTEM,
LOCALE,2057
RESOLUTION,
DELTAX,-0.5
XUNITS,NANOMETERS
YUNITS,ABSORBANCE
FIRSTX,  850.0000
LASTX,  300.0000
NPOINTS,    1101
FIRSTY,     0.13910
MAXY,     0.26132
MINY,     0.02751
XYDATA
850.0000,0.139101
849.5000,0.139313
849.0000,0.139646
848.5000,0.139921
848.0000,0.140075
847.5000,0.140365
847.0000,0.140709
846.5000,0.141064
846.0000,0.141334
845.5000,0.141748
845.0000,0.141955
844.5000,0.142147
844.0000,0.142477
843.5000,0.142783
843.0000,0.143002
842.5000,0.143259
842.0000,0.143552
841.5000,0.143723
841.0000,0.144064
840.5000,0.144457
840.0000,0.144825
839.5000,0.145129
839.0000,0.145294
838.5000,0.145615
838.0000,0.145913
837.5000,0.146231
837.0000,0.146554
836.5000,0.14677
836.0000,0.14701
835.5000,0.147327
835.0000,0.147685
834.5000,0.147969
834.0000,0.148313
833.5000,0.148655
833.0000,0.149021
832.5000,0.149338
832.0000,0.149623
831.5000,0.149915
831.0000,0.150284
830.5000,0.150613
830.0000,0.150869
829.5000,0.151199
829.0000,0.151523
828.5000,0.151806
828.0000,0.15215
827.5000,0.1524
827.0000,0.152737
826.5000,0.152995
826.0000,0.15333
825.5000,0.153592
825.0000,0.153787
824.5000,0.154187
824.0000,0.154468
823.5000,0.154811
823.0000,0.155089
822.5000,0.15542
822.0000,0.155733
821.5000,0.156059
821.0000,0.156416
820.5000,0.156689
820.0000,0.156953
819.5000,0.157188
819.0000,0.157518
818.5000,0.157826
818.0000,0.158169
817.5000,0.158403
817.0000,0.158629
816.5000,0.158929
816.0000,0.159278
815.5000,0.159603
815.0000,0.159839
814.5000,0.160131
814.0000,0.160387
813.5000,0.160728
813.0000,0.161081
812.5000,0.161304
812.0000,0.161585
811.5000,0.161886
811.0000,0.162187
810.5000,0.162502
810.0000,0.162793
809.5000,0.163063
809.0000,0.163398
808.5000,0.163711
808.0000,0.164043
807.5000,0.164329
807.0000,0.164597
806.5000,0.164883
806.0000,0.165145
805.5000,0.165453
805.0000,0.165637
804.5000,0.165954
804.0000,0.166253
803.5000,0.166541
803.0000,0.166852
802.5000,0.167111
802.0000,0.167364
801.5000,0.167647
801.0000,0.167981
800.5000,0.168238
800.0000,0.168419
799.5000,0.168627
799.0000,0.168807
798.5000,0.169012
798.0000,0.16921
797.5000,0.169402
797.0000,0.169583
796.5000,0.169778
796.0000,0.170067
795.5000,0.170302
795.0000,0.170558
794.5000,0.170814
794.0000,0.171144
793.5000,0.171388
793.0000,0.17163
792.5000,0.171842
792.0000,0.172029
791.5000,0.172306
791.0000,0.172535
790.5000,0.172731
790.0000,0.172892
789.5000,0.173096
789.0000,0.173308
788.5000,0.173523
788.0000,0.173695
787.5000,0.173853
787.0000,0.174061
786.5000,0.174231
786.0000,0.174406
785.5000,0.174593
785.0000,0.174807
784.5000,0.174974
784.0000,0.175167
783.5000,0.175395
783.0000,0.175542
782.5000,0.175682
782.0000,0.175809
781.5000,0.175916
781.0000,0.176009
780.5000,0.176139
780.0000,0.176238
779.5000,0.176279
779.0000,0.176356
778.5000,0.176517
778.0000,0.176603
777.5000,0.176718
777.0000,0.176812
776.5000,0.176928
776.0000,0.177022
775.5000,0.177167
775.0000,0.177315
774.5000,0.177461
774.0000,0.177613
773.5000,0.1777
773.0000,0.177811
772.5000,0.177916
772.0000,0.178026
771.5000,0.178103
771.0000,0.178163
770.5000,0.178145
770.0000,0.178239
769.5000,0.178342
769.0000,0.178397
768.5000,0.178423
768.0000,0.178447
767.5000,0.178487
767.0000,0.178562
766.5000,0.17865
766.0000,0.178649
765.5000,0.178659
765.0000,0.178681
764.5000,0.178723
764.0000,0.178781
763.5000,0.178807
763.0000,0.178818
762.5000,0.178825
762.0000,0.178831
761.5000,0.178872
761.0000,0.178941
760.5000,0.178912
760.0000,0.178906
759.5000,0.17891
759.0000,0.178887
758.5000,0.178907
758.0000,0.178941
757.5000,0.17889
757.0000,0.178818
756.5000,0.178882
756.0000,0.178874
755.5000,0.178798
755.0000,0.178802
754.5000,0.178691
754.0000,0.178653
753.5000,0.178657
753.0000,0.178625
752.5000,0.178561
752.0000,0.178478
751.5000,0.178463
751.0000,0.178402
750.5000,0.178401
750.0000,0.178362
749.5000,0.178284
749.0000,0.17821
748.5000,0.178167
748.0000,0.178166
747.5000,0.178084
747.0000,0.177965
746.5000,0.177894
746.0000,0.177789
745.5000,0.177723
745.0000,0.177652
744.5000,0.177501
744.0000,0.177386
743.5000,0.177308
743.0000,0.177213
742.5000,0.177122
742.0000,0.177021
741.5000,0.176902
741.0000,0.176807
740.5000,0.176722
740.0000,0.176652
739.5000,0.176527
739.0000,0.176438
738.5000,0.176346
738.0000,0.176207
737.5000,0.176009
737.0000,0.17589
736.5000,0.175686
736.0000,0.175549
735.5000,0.17545
735.0000,0.175314
734.5000,0.175228
734.0000,0.175101
733.5000,0.175015
733.0000,0.174893
732.5000,0.174797
732.0000,0.174704
731.5000,0.174582
731.0000,0.174422
730.5000,0.174277
730.0000,0.174143
729.5000,0.173984
729.0000,0.173824
728.5000,0.173678
728.0000,0.173507
727.5000,0.173375
727.0000,0.173209
726.5000,0.173037
726.0000,0.172863
725.5000,0.172741
725.0000,0.172599
724.5000,0.172431
724.0000,0.172233
723.5000,0.172023
723.0000,0.17187
722.5000,0.171681
722.0000,0.171521
721.5000,0.171324
721.0000,0.171138
720.5000,0.170965
720.0000,0.170824
719.5000,0.170647
719.0000,0.170475
718.5000,0.170297
718.0000,0.170093
717.5000,0.169889
717.0000,0.169695
716.5000,0.169503
716.0000,0.169286
715.5000,0.16914
715.0000,0.168936
714.5000,0.168768
714.0000,0.168598
713.5000,0.168414
713.0000,0.168199
712.5000,0.168021
712.0000,0.167866
711.5000,0.167646
711.0000,0.167478
710.5000,0.167271
710.0000,0.167047
709.5000,0.166838
709.0000,0.166669
708.5000,0.166459
708.0000,0.166261
707.5000,0.166054
707.0000,0.165841
706.5000,0.165621
706.0000,0.16544
705.5000,0.165236
705.0000,0.165025
704.5000,0.164828
704.0000,0.164606
703.5000,0.164377
703.0000,0.164176
702.5000,0.163936
702.0000,0.163717
701.5000,0.163506
701.0000,0.163267
700.5000,0.163028
700.0000,0.162809
699.5000,0.162597
699.0000,0.162357
698.5000,0.162171
698.0000,0.161929
697.5000,0.161718
697.0000,0.161498
696.5000,0.161276
696.0000,0.161058
695.5000,0.160846
695.0000,0.160617
694.5000,0.160402
694.0000,0.160189
693.5000,0.159974
693.0000,0.159763
692.5000,0.15956
692.0000,0.159307
691.5000,0.159083
691.0000,0.158838
690.5000,0.158612
690.0000,0.158352
689.5000,0.158111
689.0000,0.157866
688.5000,0.157641
688.0000,0.157383
687.5000,0.157134
687.0000,0.156907
686.5000,0.156671
686.0000,0.156441
685.5000,0.156204
685.0000,0.155957
684.5000,0.155697
684.0000,0.155475
683.5000,0.155224
683.0000,0.154968
682.5000,0.154689
682.0000,0.154458
681.5000,0.154209
681.0000,0.153922
680.5000,0.153696
680.0000,0.153414
679.5000,0.153158
679.0000,0.152856
678.5000,0.152595
678.0000,0.152358
677.5000,0.152082
677.0000,0.151863
676.5000,0.151555
676.0000,0.151331
675.5000,0.15106
675.0000,0.150874
674.5000,0.150587
674.0000,0.150336
673.5000,0.150072
673.0000,0.149784
672.5000,0.149541
672.0000,0.14929
671.5000,0.149024
671.0000,0.148732
670.5000,0.148488
670.0000,0.148166
669.5000,0.147891
669.0000,0.1476
668.5000,0.14732
668.0000,0.147016
667.5000,0.146726
667.0000,0.146448
666.5000,0.146182
666.0000,0.145932
665.5000,0.145629
665.0000,0.145346
664.5000,0.14506
664.0000,0.144791
663.5000,0.144515
663.0000,0.144207
662.5000,0.143912
662.0000,0.143576
661.5000,0.143298
661.0000,0.143038
660.5000,0.142743
660.0000,0.142452
659.5000,0.142179
659.0000,0.141881
658.5000,0.141586
658.0000,0.141298
657.5000,0.141006
657.0000,0.140671
656.5000,0.140367
656.0000,0.140035
655.5000,0.1397
655.0000,0.139402
654.5000,0.139094
654.0000,0.1388
653.5000,0.138479
653.0000,0.138193
652.5000,0.137873
652.0000,0.137547
651.5000,0.137238
651.0000,0.13692
650.5000,0.136577
650.0000,0.136217
649.5000,0.135899
649.0000,0.135561
648.5000,0.135238
648.0000,0.134941
647.5000,0.134615
647.0000,0.134298
646.5000,0.133983
646.0000,0.133665
645.5000,0.133311
645.0000,0.132954
644.5000,0.13262
644.0000,0.13228
643.5000,0.131916
643.0000,0.131569
642.5000,0.13121
642.0000,0.130837
641.5000,0.130487
641.0000,0.130179
640.5000,0.129801
640.0000,0.129425
639.5000,0.1291
639.0000,0.128718
638.5000,0.128339
638.0000,0.12801
637.5000,0.127644
637.0000,0.127246
636.5000,0.126946
636.0000,0.126584
635.5000,0.126213
635.0000,0.125868
634.5000,0.125536
634.0000,0.125188
633.5000,0.124824
633.0000,0.12447
632.5000,0.124051
632.0000,0.123721
631.5000,0.123379
631.0000,0.123016
630.5000,0.122676
630.0000,0.122297
629.5000,0.12194
629.0000,0.121588
628.5000,0.121253
628.0000,0.120852
627.5000,0.120437
627.0000,0.120055
626.5000,0.11964
626.0000,0.119269
625.5000,0.118876
625.0000,0.118498
624.5000,0.118079
624.0000,0.117704
623.5000,0.117348
623.0000,0.116963
622.5000,0.116566
622.0000,0.116179
621.5000,0.115831
621.0000,0.115425
620.5000,0.115057
620.0000,0.114663
619.5000,0.114263
619.0000,0.113874
618.5000,0.113514
618.0000,0.113121
617.5000,0.112706
617.0000,0.112314
616.5000,0.111939
616.0000,0.111551
615.5000,0.111156
615.0000,0.110784
614.5000,0.110377
614.0000,0.109966
613.5000,0.109578
613.0000,0.109185
612.5000,0.108786
612.0000,0.10841
611.5000,0.10805
611.0000,0.107633
610.5000,0.107289
610.0000,0.106917
609.5000,0.106524
609.0000,0.106149
608.5000,0.105735
608.0000,0.105293
607.5000,0.104863
607.0000,0.104478
606.5000,0.10407
606.0000,0.103691
605.5000,0.103308
605.0000,0.102925
604.5000,0.102546
604.0000,0.102165
603.5000,0.101794
603.0000,0.101404
602.5000,0.101003
602.0000,0.100587
601.5000,0.100181
601.0000,0.0997592
600.5000,0.0993802
600.0000,0.0988232
599.5000,0.0984569
599.0000,0.0980895
598.5000,0.0976843
598.0000,0.0972556
597.5000,0.0968581
597.0000,0.0965011
596.5000,0.0961225
596.0000,0.0957292
595.5000,0.0953643
595.0000,0.0949804
594.5000,0.0946409
594.0000,0.0942863
593.5000,0.0939178
593.0000,0.0935211
592.5000,0.0931087
592.0000,0.0927469
591.5000,0.0923595
591.0000,0.0920032
590.5000,0.0916414
590.0000,0.091279
589.5000,0.0908716
589.0000,0.090501
588.5000,0.0901566
588.0000,0.0897728
587.5000,0.089389
587.0000,0.088998
586.5000,0.08861
586.0000,0.0882021
585.5000,0.0878599
585.0000,0.0874527
584.5000,0.0870879
584.0000,0.0867601
583.5000,0.0864135
583.0000,0.0860306
582.5000,0.0856512
582.0000,0.0853114
581.5000,0.0849444
581.0000,0.0846201
580.5000,0.0842535
580.0000,0.0838694
579.5000,0.0834918
579.0000,0.0831424
578.5000,0.0827914
578.0000,0.0824371
577.5000,0.0821216
577.0000,0.0817433
576.5000,0.0813785
576.0000,0.0810633
575.5000,0.0807381
575.0000,0.0803805
574.5000,0.0800456
574.0000,0.0797435
573.5000,0.0793696
573.0000,0.0790744
572.5000,0.0787862
572.0000,0.0784425
571.5000,0.0781487
571.0000,0.0778425
570.5000,0.0775009
570.0000,0.0771445
569.5000,0.0768545
569.0000,0.0764955
568.5000,0.0761636
568.0000,0.075817
567.5000,0.0754842
567.0000,0.0751534
566.5000,0.0748568
566.0000,0.0745316
565.5000,0.0741805
565.0000,0.0738629
564.5000,0.0735289
564.0000,0.0732218
563.5000,0.0728899
563.0000,0.0725884
562.5000,0.0722475
562.0000,0.0719422
561.5000,0.0716575
561.0000,0.0713615
560.5000,0.0710831
560.0000,0.0707668
559.5000,0.0704607
559.0000,0.0701348
558.5000,0.0698643
558.0000,0.0695752
557.5000,0.0692824
557.0000,0.0689639
556.5000,0.0686635
556.0000,0.0683828
555.5000,0.0680863
555.0000,0.0678428
554.5000,0.0675557
554.0000,0.0672824
553.5000,0.0669851
553.0000,0.0667209
552.5000,0.0664285
552.0000,0.0661568
551.5000,0.0658589
551.0000,0.0655684
550.5000,0.0653115
550.0000,0.0650278
549.5000,0.064748
549.0000,0.0645145
548.5000,0.0642363
548.0000,0.0639997
547.5000,0.0637668
547.0000,0.0635017
546.5000,0.0632405
546.0000,0.0629936
545.5000,0.0627897
545.0000,0.0625268
544.5000,0.0623197
544.0000,0.0620374
543.5000,0.0617887
543.0000,0.0615485
542.5000,0.0613469
542.0000,0.0610782
541.5000,0.0607944
541.0000,0.0605508
540.5000,0.060308
540.0000,0.0600827
539.5000,0.0598667
539.0000,0.0596498
538.5000,0.0593952
538.0000,0.0591616
537.5000,0.0589524
537.0000,0.058758
536.5000,0.0585561
536.0000,0.0583582
535.5000,0.058136
535.0000,0.0579068
534.5000,0.0576691
534.0000,0.0575003
533.5000,0.0572663
533.0000,0.0570387
532.5000,0.0568281
532.0000,0.0566113
531.5000,0.0564155
531.0000,0.0562306
530.5000,0.05604
530.0000,0.0558417
529.5000,0.0556618
529.0000,0.0554581
528.5000,0.0552096
528.0000,0.0549952
527.5000,0.0547978
527.0000,0.0546016
526.5000,0.0544291
526.0000,0.0542207
525.5000,0.0540287
525.0000,0.0538522
524.5000,0.0536669
524.0000,0.0535107
523.5000,0.0533087
523.0000,0.0531303
522.5000,0.0529414
522.0000,0.0527629
521.5000,0.0525868
521.0000,0.0524047
520.5000,0.0522466
520.0000,0.052086
519.5000,0.0518985
519.0000,0.0517667
518.5000,0.0515722
518.0000,0.0513719
517.5000,0.0511875
517.0000,0.0510417
516.5000,0.0509012
516.0000,0.0507629
515.5000,0.0506081
515.0000,0.0504188
514.5000,0.050277
514.0000,0.0500947
513.5000,0.0499338
513.0000,0.0497955
512.5000,0.0496417
512.0000,0.0494975
511.5000,0.0493539
511.0000,0.0492056
510.5000,0.0490293
510.0000,0.0489162
509.5000,0.0487983
509.0000,0.0486219
508.5000,0.0484547
508.0000,0.0482831
507.5000,0.0481183
507.0000,0.0479547
506.5000,0.0478114
506.0000,0.0476701
505.5000,0.0475044
505.0000,0.0473785
504.5000,0.0472427
504.0000,0.0471156
503.5000,0.0469887
503.0000,0.0468799
502.5000,0.0467693
502.0000,0.0466205
501.5000,0.0465198
501.0000,0.0464089
500.5000,0.0462709
500.0000,0.0461361
499.5000,0.0460461
499.0000,0.0459328
498.5000,0.0458007
498.0000,0.0457048
497.5000,0.0455611
497.0000,0.0454422
496.5000,0.0453314
496.0000,0.0452109
495.5000,0.0450666
495.0000,0.0449317
494.5000,0.0448117
494.0000,0.0446578
493.5000,0.0445345
493.0000,0.0443795
492.5000,0.0442542
492.0000,0.0441424
491.5000,0.0440352
491.0000,0.0439003
490.5000,0.0438172
490.0000,0.0437025
489.5000,0.0435895
489.0000,0.0435026
488.5000,0.0434229
488.0000,0.0433012
487.5000,0.0431468
487.0000,0.0430548
486.5000,0.0429457
486.0000,0.0428639
485.5000,0.042754
485.0000,0.0426279
484.5000,0.0424965
484.0000,0.0424019
483.5000,0.0423122
483.0000,0.0422091
482.5000,0.0420798
482.0000,0.0419603
481.5000,0.0418454
481.0000,0.0417584
480.5000,0.0416615
480.0000,0.0415229
479.5000,0.0413942
479.0000,0.041291
478.5000,0.0412107
478.0000,0.041104
477.5000,0.0410286
477.0000,0.0409109
476.5000,0.0407991
476.0000,0.0407268
475.5000,0.0406339
475.0000,0.0405379
474.5000,0.0404149
474.0000,0.0403194
473.5000,0.0401885
473.0000,0.0400725
472.5000,0.0399887
472.0000,0.0398846
471.5000,0.0397779
471.0000,0.0396508
470.5000,0.0395718
470.0000,0.0394645
469.5000,0.0393815
469.0000,0.0392876
468.5000,0.0391392
468.0000,0.0390523
467.5000,0.0389731
467.0000,0.0388731
466.5000,0.0387339
466.0000,0.038622
465.5000,0.0385255
465.0000,0.0383886
464.5000,0.0382944
464.0000,0.0381676
463.5000,0.0380397
463.0000,0.0379357
462.5000,0.0378311
462.0000,0.0377337
461.5000,0.0376105
461.0000,0.0375627
460.5000,0.0374802
460.0000,0.0373586
459.5000,0.0372746
459.0000,0.0372001
458.5000,0.0370928
458.0000,0.0370131
457.5000,0.0369155
457.0000,0.0367721
456.5000,0.0366626
456.0000,0.0365879
455.5000,0.0364816
455.0000,0.0363428
454.5000,0.0362319
454.0000,0.0361119
453.5000,0.036012
453.0000,0.0359625
452.5000,0.0358814
452.0000,0.0357678
451.5000,0.03566
451.0000,0.0355621
450.5000,0.0354792
450.0000,0.0353889
449.5000,0.0352922
449.0000,0.0351576
448.5000,0.0350338
448.0000,0.0349454
447.5000,0.0348294
447.0000,0.03473
446.5000,0.0346339
446.0000,0.0345369
445.5000,0.034427
445.0000,0.0343239
444.5000,0.0342487
444.0000,0.0341391
443.5000,0.0340792
443.0000,0.0339871
442.5000,0.0339068
442.0000,0.0337958
441.5000,0.0336893
441.0000,0.0335707
440.5000,0.0334779
440.0000,0.0333888
439.5000,0.0332868
439.0000,0.0332034
438.5000,0.0331062
438.0000,0.0330107
437.5000,0.0329624
437.0000,0.0329059
436.5000,0.0328021
436.0000,0.0326994
435.5000,0.032612
435.0000,0.0325039
434.5000,0.0323818
434.0000,0.0322649
433.5000,0.03213
433.0000,0.0320335
432.5000,0.0319131
432.0000,0.0318388
431.5000,0.0317447
431.0000,0.0316939
430.5000,0.0316079
430.0000,0.0315085
429.5000,0.0314334
429.0000,0.0313427
428.5000,0.0312611
428.0000,0.0311278
427.5000,0.0310097
427.0000,0.0308918
426.5000,0.0308008
426.0000,0.0307276
425.5000,0.0306423
425.0000,0.0305533
424.5000,0.0304942
424.0000,0.0304366
423.5000,0.0303563
423.0000,0.0302564
422.5000,0.0301474
422.0000,0.0300593
421.5000,0.0299491
421.0000,0.0298475
420.5000,0.0297702
420.0000,0.0297746
419.5000,0.0296175
419.0000,0.0295214
418.5000,0.0294007
418.0000,0.0293759
417.5000,0.0292706
417.0000,0.0291816
416.5000,0.0291049
416.0000,0.0290865
415.5000,0.0290726
415.0000,0.0289806
414.5000,0.0289002
414.0000,0.0287388
413.5000,0.0286568
413.0000,0.0286009
412.5000,0.0284669
412.0000,0.0283392
411.5000,0.0282729
411.0000,0.0281824
410.5000,0.0281038
410.0000,0.0280871
409.5000,0.0280719
409.0000,0.0279483
408.5000,0.0279011
408.0000,0.027829
407.5000,0.02778
407.0000,0.0277438
406.5000,0.0276964
406.0000,0.0276334
405.5000,0.0275397
405.0000,0.0275113
404.5000,0.0275481
404.0000,0.0276237
403.5000,0.0275818
403.0000,0.02759
402.5000,0.027561
402.0000,0.0276185
401.5000,0.0276322
401.0000,0.0276962
400.5000,0.0276501
400.0000,0.0276167
399.5000,0.0276197
399.0000,0.0276002
398.5000,0.0276466
398.0000,0.0275466
397.5000,0.0275389
397.0000,0.0275359
396.5000,0.0275336
396.0000,0.0275711
395.5000,0.0275925
395.0000,0.0276638
394.5000,0.0277185
394.0000,0.02786
393.5000,0.027963
393.0000,0.0280044
392.5000,0.0281147
392.0000,0.0281165
391.5000,0.0283061
391.0000,0.0283783
390.5000,0.0284287
390.0000,0.0285333
389.5000,0.0286442
389.0000,0.0287628
388.5000,0.028893
388.0000,0.0291228
387.5000,0.0292204
387.0000,0.0294153
386.5000,0.029658
386.0000,0.0297727
385.5000,0.0299308
385.0000,0.0301364
384.5000,0.0303464
384.0000,0.0305211
383.5000,0.0307014
383.0000,0.0308784
382.5000,0.0310642
382.0000,0.0313682
381.5000,0.0316414
381.0000,0.0319393
380.5000,0.0321869
380.0000,0.0324568
379.5000,0.0326981
379.0000,0.0330105
378.5000,0.0332994
378.0000,0.0335778
377.5000,0.0339076
377.0000,0.0341592
376.5000,0.0344626
376.0000,0.0347807
375.5000,0.0351853
375.0000,0.0354918
374.5000,0.0358276
374.0000,0.0361643
373.5000,0.0364843
373.0000,0.036859
372.5000,0.0372227
372.0000,0.0376039
371.5000,0.0379412
371.0000,0.0383662
370.5000,0.0387803
370.0000,0.0394079
369.5000,0.0398313
369.0000,0.040251
368.5000,0.0406451
368.0000,0.0410851
367.5000,0.0414594
367.0000,0.0419298
366.5000,0.0423581
366.0000,0.0428125
365.5000,0.04323
365.0000,0.0437871
364.5000,0.0443356
364.0000,0.0448061
363.5000,0.0453766
363.0000,0.045888
362.5000,0.0464506
362.0000,0.0470856
361.5000,0.0476661
361.0000,0.0480868
360.5000,0.0486467
360.0000,0.0492043
359.5000,0.0497336
359.0000,0.0503414
358.5000,0.0509123
358.0000,0.0514464
357.5000,0.0520076
357.0000,0.0527143
356.5000,0.0532944
356.0000,0.0539465
355.5000,0.0546137
355.0000,0.0552118
354.5000,0.0558437
354.0000,0.0564648
353.5000,0.0571053
353.0000,0.0577172
352.5000,0.0584872
352.0000,0.0591761
351.5000,0.0598596
351.0000,0.060597
350.5000,0.0614088
350.0000,0.0622087
349.5000,0.0629945
349.0000,0.0637966
348.5000,0.0645189
348.0000,0.0653752
347.5000,0.0662833
347.0000,0.0672371
346.5000,0.0680781
346.0000,0.0690347
345.5000,0.0700246
345.0000,0.0709593
344.5000,0.0720004
344.0000,0.0730105
343.5000,0.073997
343.0000,0.0750131
342.5000,0.0760826
342.0000,0.0771242
341.5000,0.078328
341.0000,0.0795624
340.5000,0.0807459
340.0000,0.0841824
339.5000,0.0857638
339.0000,0.0881789
338.5000,0.0898414
338.0000,0.0910037
337.5000,0.0919351
337.0000,0.0933102
336.5000,0.0942185
336.0000,0.0950031
335.5000,0.0963544
335.0000,0.0979076
334.5000,0.0994274
334.0000,0.10149
333.5000,0.104513
333.0000,0.106198
332.5000,0.108327
332.0000,0.11083
331.5000,0.113198
331.0000,0.114908
330.5000,0.116862
330.0000,0.118232
329.5000,0.119202
329.0000,0.121668
328.5000,0.124085
328.0000,0.126498
327.5000,0.128477
327.0000,0.131116
326.5000,0.133929
326.0000,0.137282
325.5000,0.140078
325.0000,0.142285
324.5000,0.144668
324.0000,0.147075
323.5000,0.149743
323.0000,0.151464
322.5000,0.154232
322.0000,0.156757
321.5000,0.159695
321.0000,0.162735
320.5000,0.166111
320.0000,0.168669
319.5000,0.171876
319.0000,0.175693
318.5000,0.178001
318.0000,0.180223
317.5000,0.182509
317.0000,0.184821
316.5000,0.187025
316.0000,0.190112
315.5000,0.193168
315.0000,0.195355
314.5000,0.197884
314.0000,0.200691
313.5000,0.203411
313.0000,0.206289
312.5000,0.208738
312.0000,0.210764
311.5000,0.212346
311.0000,0.214403
310.5000,0.217059
310.0000,0.219107
309.5000,0.221098
309.0000,0.223233
308.5000,0.225733
308.0000,0.228353
307.5000,0.230569
307.0000,0.23339
306.5000,0.235347
306.0000,0.237799
305.5000,0.240186
305.0000,0.241724
304.5000,0.243288
304.0000,0.244793
303.5000,0.246712
303.0000,0.248212
302.5000,0.250599
302.0000,0.252538
301.5000,0.254319
301.0000,0.256313
300.5000,0.25879
300.0000,0.261321

##### Extended Information
[Comments]
Sample name
Comment
User
Division
Company,Glasgow University

[Detailed Information]
Creation date,13/05/2022 18:43

Data array type,Linear data array
Horizontal axis,Wavelength [nm]
Vertical axis,Abs
Start,850 nm
End,300 nm
Data interval,0.5 nm
Data points,1101    

[Measurement Information]
Instrument name,Jasco V-670
Model name,V-670
Serial No.,A007061154

Measurement date,13/05/2022 18:43

Photometric mode,Abs
Measurement range,850 - 300 nm
Data interval,0.5 nm
UV/Vis bandwidth,2.0 nm
NIR bandwidth,8.0 nm
Response,Fast
Scan speed,1000 nm/min
Change source at,340 nm
Change grating at,850 nm
Light source,D2/WI
Filter exchange,Step
Correction,Baseline

