TITLE,
DATA TYPE,ULTRAVIOLET SPECTRUM
ORIGIN,JASCO
OWNER,
DATE,22/05/13
TIME,18:31:28
SPECTROMETER/DATA SYSTEM,
LOCALE,2057
RESOLUTION,
DELTAX,-0.5
XUNITS,NANOMETERS
YUNITS,ABSORBANCE
FIRSTX,  850.0000
LASTX,  300.0000
NPOINTS,    1101
FIRSTY,     0.00006
MAXY,     0.01880
MINY,    -0.00020
XYDATA
850.0000,6.00945E-005
849.5000,9.49306E-005
849.0000,6.30578E-005
848.5000,-3.0917E-005
848.0000,-0.000201314
847.5000,-0.000108704
847.0000,-5.61009E-005
846.5000,-4.15767E-006
846.0000,9.11871E-005
845.5000,0.000110556
845.0000,7.12376E-005
844.5000,3.16984E-005
844.0000,0.000131007
843.5000,0.000114686
843.0000,8.31718E-005
842.5000,0.000132279
842.0000,0.000147001
841.5000,9.48253E-005
841.0000,0.000136302
840.5000,0.00020936
840.0000,0.000235119
839.5000,0.000225668
839.0000,0.000147778
838.5000,0.000101017
838.0000,7.94741E-005
837.5000,7.86743E-005
837.0000,0.000134171
836.5000,0.00016203
836.0000,0.00013175
835.5000,0.000196265
835.0000,0.000247273
834.5000,0.000334826
834.0000,0.00033486
833.5000,0.000372441
833.0000,0.000386274
832.5000,0.000338373
832.0000,0.000321502
831.5000,0.000286512
831.0000,0.000318826
830.5000,0.000204856
830.0000,0.00015039
829.5000,0.000107596
829.0000,7.32245E-005
828.5000,6.83126E-005
828.0000,5.80627E-005
827.5000,1.69512E-005
827.0000,-5.17841E-006
826.5000,-4.48797E-006
826.0000,6.17351E-005
825.5000,0.000124734
825.0000,8.26239E-005
824.5000,0.00019902
824.0000,0.000250811
823.5000,0.000259248
823.0000,0.000251713
822.5000,0.000304617
822.0000,0.000311951
821.5000,0.00026056
821.0000,0.000329168
820.5000,0.000285613
820.0000,0.000235206
819.5000,0.000236668
819.0000,0.000259219
818.5000,0.000242602
818.0000,0.000272055
817.5000,0.000316677
817.0000,0.000242619
816.5000,0.000244615
816.0000,0.00032949
815.5000,0.000265497
815.0000,0.000258819
814.5000,0.000219447
814.0000,0.000170023
813.5000,0.000151595
813.0000,0.000220438
812.5000,0.000197479
812.0000,0.0001796
811.5000,0.000192196
811.0000,0.000202818
810.5000,0.000270906
810.0000,0.00024125
809.5000,0.000244454
809.0000,0.000221197
808.5000,0.000180975
808.0000,0.000145244
807.5000,0.000187497
807.0000,0.000209745
806.5000,0.000211352
806.0000,0.000229822
805.5000,0.000276067
805.0000,0.000262932
804.5000,0.000336782
804.0000,0.000336614
803.5000,0.000344983
803.0000,0.000322687
802.5000,0.000308242
802.0000,0.000251217
801.5000,0.000246676
801.0000,0.000275877
800.5000,0.000243219
800.0000,0.000266194
799.5000,0.000249781
799.0000,0.00024577
798.5000,0.000239805
798.0000,0.000262675
797.5000,0.000217686
797.0000,0.000140226
796.5000,0.000179093
796.0000,0.000215268
795.5000,0.000190359
795.0000,0.000179477
794.5000,0.000195045
794.0000,0.000232025
793.5000,0.000238801
793.0000,0.000295232
792.5000,0.000234454
792.0000,0.000212776
791.5000,0.000239907
791.0000,0.000275738
790.5000,0.000266386
790.0000,0.000274532
789.5000,0.000293954
789.0000,0.00031074
788.5000,0.000333011
788.0000,0.000331504
787.5000,0.0003369
787.0000,0.000320718
786.5000,0.000389611
786.0000,0.000392138
785.5000,0.000391628
785.0000,0.000435242
784.5000,0.000412587
784.0000,0.00037845
783.5000,0.000385155
783.0000,0.000351486
782.5000,0.000316022
782.0000,0.00029585
781.5000,0.000259554
781.0000,0.000217925
780.5000,0.000252113
780.0000,0.000252715
779.5000,0.00027932
779.0000,0.000298181
778.5000,0.00031063
778.0000,0.000266996
777.5000,0.000238456
777.0000,0.000237368
776.5000,0.000183947
776.0000,0.00018449
775.5000,0.000191297
775.0000,0.000197054
774.5000,0.000192676
774.0000,0.000224426
773.5000,0.000268721
773.0000,0.000277522
772.5000,0.000338889
772.0000,0.000379513
771.5000,0.000363066
771.0000,0.000319733
770.5000,0.000299164
770.0000,0.000338287
769.5000,0.00036996
769.0000,0.000356036
768.5000,0.000352375
768.0000,0.000281581
767.5000,0.00026039
767.0000,0.000320049
766.5000,0.000348193
766.0000,0.000330956
765.5000,0.000308914
765.0000,0.000286316
764.5000,0.000277195
764.0000,0.000312008
763.5000,0.00034848
763.0000,0.00031259
762.5000,0.000262626
762.0000,0.000300648
761.5000,0.000320051
761.0000,0.000374995
760.5000,0.000380639
760.0000,0.000401517
759.5000,0.000400471
759.0000,0.000413672
758.5000,0.000455088
758.0000,0.000433134
757.5000,0.000435268
757.0000,0.000387158
756.5000,0.000421157
756.0000,0.000430247
755.5000,0.00040637
755.0000,0.000439687
754.5000,0.00036778
754.0000,0.000345876
753.5000,0.0003672
753.0000,0.000414988
752.5000,0.000423721
752.0000,0.000402005
751.5000,0.00041354
751.0000,0.0003896
750.5000,0.000472087
750.0000,0.000511822
749.5000,0.000474835
749.0000,0.0004182
748.5000,0.000379882
748.0000,0.000400277
747.5000,0.000436464
747.0000,0.000422997
746.5000,0.000373199
746.0000,0.000356767
745.5000,0.000346911
745.0000,0.000400257
744.5000,0.000390175
744.0000,0.000391846
743.5000,0.000376818
743.0000,0.00039098
742.5000,0.000435084
742.0000,0.000415019
741.5000,0.000453082
741.0000,0.000419594
740.5000,0.000443989
740.0000,0.000387521
739.5000,0.00043228
739.0000,0.00043481
738.5000,0.000481067
738.0000,0.000425316
737.5000,0.000398573
737.0000,0.000396297
736.5000,0.000365322
736.0000,0.000379206
735.5000,0.000389413
735.0000,0.000384202
734.5000,0.000395461
734.0000,0.00041514
733.5000,0.000447658
733.0000,0.000455569
732.5000,0.000472071
732.0000,0.000512715
731.5000,0.000481987
731.0000,0.000479557
730.5000,0.000439492
730.0000,0.000449878
729.5000,0.000441226
729.0000,0.000424862
728.5000,0.000426104
728.0000,0.000397041
727.5000,0.00042283
727.0000,0.000455348
726.5000,0.000483188
726.0000,0.000486439
725.5000,0.000507338
725.0000,0.000533663
724.5000,0.000543264
724.0000,0.000560633
723.5000,0.000541898
723.0000,0.00053484
722.5000,0.000491753
722.0000,0.000501368
721.5000,0.00048034
721.0000,0.000457089
720.5000,0.000464394
720.0000,0.000460254
719.5000,0.000501658
719.0000,0.000480466
718.5000,0.000489866
718.0000,0.000446999
717.5000,0.000450062
717.0000,0.000435745
716.5000,0.000453304
716.0000,0.000444566
715.5000,0.000445226
715.0000,0.000458248
714.5000,0.000461587
714.0000,0.000499394
713.5000,0.000491559
713.0000,0.000502558
712.5000,0.000507533
712.0000,0.000549962
711.5000,0.000531818
711.0000,0.000536619
710.5000,0.000562695
710.0000,0.000565477
709.5000,0.000541837
709.0000,0.000560667
708.5000,0.000552115
708.0000,0.00051462
707.5000,0.000504465
707.0000,0.000522651
706.5000,0.000504403
706.0000,0.000495441
705.5000,0.000509988
705.0000,0.000508439
704.5000,0.000505026
704.0000,0.000496683
703.5000,0.000509049
703.0000,0.000522681
702.5000,0.000512283
702.0000,0.00051554
701.5000,0.000519193
701.0000,0.000499544
700.5000,0.000491421
700.0000,0.000473146
699.5000,0.000479977
699.0000,0.000452348
698.5000,0.000465267
698.0000,0.000457594
697.5000,0.000462869
697.0000,0.000477231
696.5000,0.000463771
696.0000,0.00050146
695.5000,0.000502671
695.0000,0.000493677
694.5000,0.000508184
694.0000,0.000520332
693.5000,0.000526084
693.0000,0.000532042
692.5000,0.000535576
692.0000,0.00051295
691.5000,0.000518062
691.0000,0.000506062
690.5000,0.000489092
690.0000,0.000478984
689.5000,0.000478868
689.0000,0.000512232
688.5000,0.000529818
688.0000,0.000548534
687.5000,0.000553961
687.0000,0.000556872
686.5000,0.000591193
686.0000,0.000613306
685.5000,0.000607703
685.0000,0.000612903
684.5000,0.000616352
684.0000,0.000611052
683.5000,0.000583391
683.0000,0.000614497
682.5000,0.000553427
682.0000,0.000564317
681.5000,0.000552395
681.0000,0.00050301
680.5000,0.000506758
680.0000,0.000509193
679.5000,0.000508809
679.0000,0.000473675
678.5000,0.000504795
678.0000,0.000492154
677.5000,0.000501487
677.0000,0.000512513
676.5000,0.000492812
676.0000,0.000502105
675.5000,0.000523913
675.0000,0.000580098
674.5000,0.000602745
674.0000,0.000595022
673.5000,0.000599592
673.0000,0.000628072
672.5000,0.000624029
672.0000,0.000624593
671.5000,0.000613012
671.0000,0.000572192
670.5000,0.000557914
670.0000,0.000559103
669.5000,0.00059124
669.0000,0.000547696
668.5000,0.000577696
668.0000,0.000583604
667.5000,0.000593669
667.0000,0.000613141
666.5000,0.000638223
666.0000,0.00069061
665.5000,0.000677985
665.0000,0.000708086
664.5000,0.000687125
664.0000,0.000703489
663.5000,0.000681828
663.0000,0.000692235
662.5000,0.000684764
662.0000,0.000652938
661.5000,0.000661848
661.0000,0.000670868
660.5000,0.000692699
660.0000,0.000679938
659.5000,0.000711265
659.0000,0.000699561
658.5000,0.000694648
658.0000,0.00070995
657.5000,0.000699722
657.0000,0.000681954
656.5000,0.000685343
656.0000,0.000702138
655.5000,0.000685627
655.0000,0.000699306
654.5000,0.000700562
654.0000,0.000701491
653.5000,0.000713666
653.0000,0.000721713
652.5000,0.000749612
652.0000,0.000734498
651.5000,0.000759466
651.0000,0.000783065
650.5000,0.000766082
650.0000,0.000752437
649.5000,0.000776512
649.0000,0.000782423
648.5000,0.000755484
648.0000,0.000774028
647.5000,0.000771421
647.0000,0.000746307
646.5000,0.000782607
646.0000,0.000797357
645.5000,0.000788759
645.0000,0.000806109
644.5000,0.000812722
644.0000,0.000823637
643.5000,0.00084612
643.0000,0.000903969
642.5000,0.000896493
642.0000,0.000899376
641.5000,0.000883261
641.0000,0.000909444
640.5000,0.000930693
640.0000,0.00092343
639.5000,0.000928758
639.0000,0.000888483
638.5000,0.000901986
638.0000,0.00091497
637.5000,0.000919589
637.0000,0.000911946
636.5000,0.000933585
636.0000,0.000963693
635.5000,0.000975069
635.0000,0.000993704
634.5000,0.00101552
634.0000,0.00103656
633.5000,0.00104327
633.0000,0.00104436
632.5000,0.00102703
632.0000,0.00104739
631.5000,0.00103323
631.0000,0.00103838
630.5000,0.00105485
630.0000,0.00104759
629.5000,0.0010854
629.0000,0.0010664
628.5000,0.00108174
628.0000,0.00106884
627.5000,0.00107236
627.0000,0.00108101
626.5000,0.00106597
626.0000,0.00104671
625.5000,0.00101283
625.0000,0.00104385
624.5000,0.00101555
624.0000,0.000998146
623.5000,0.00102371
623.0000,0.0010208
622.5000,0.00104557
622.0000,0.00107855
621.5000,0.00113124
621.0000,0.00114856
620.5000,0.00118069
620.0000,0.00118912
619.5000,0.00117819
619.0000,0.00118166
618.5000,0.00118043
618.0000,0.00118262
617.5000,0.00115409
617.0000,0.00114645
616.5000,0.00118301
616.0000,0.00121669
615.5000,0.00121201
615.0000,0.00125943
614.5000,0.00126131
614.0000,0.00126017
613.5000,0.00131409
613.0000,0.00132379
612.5000,0.00132451
612.0000,0.00132744
611.5000,0.00136499
611.0000,0.00133698
610.5000,0.0013679
610.0000,0.00137449
609.5000,0.00136844
609.0000,0.00140003
608.5000,0.00140488
608.0000,0.00140892
607.5000,0.00140854
607.0000,0.00144074
606.5000,0.00144699
606.0000,0.00149586
605.5000,0.00151138
605.0000,0.00151836
604.5000,0.00152314
604.0000,0.0015368
603.5000,0.00155205
603.0000,0.00153848
602.5000,0.00154143
602.0000,0.00153447
601.5000,0.00151657
601.0000,0.00151421
600.5000,0.00154196
600.0000,0.00157416
599.5000,0.00158707
599.0000,0.0015886
598.5000,0.00162508
598.0000,0.00161956
597.5000,0.00162036
597.0000,0.00163736
596.5000,0.0016262
596.0000,0.00164368
595.5000,0.00167792
595.0000,0.0017166
594.5000,0.00173719
594.0000,0.00175218
593.5000,0.0017799
593.0000,0.00178944
592.5000,0.00179772
592.0000,0.0017903
591.5000,0.0017915
591.0000,0.00178555
590.5000,0.00180784
590.0000,0.00183368
589.5000,0.001837
589.0000,0.00188816
588.5000,0.00194178
588.0000,0.00192591
587.5000,0.0019222
587.0000,0.00192451
586.5000,0.00194001
586.0000,0.00194418
585.5000,0.0019723
585.0000,0.00195823
584.5000,0.00195301
584.0000,0.0019991
583.5000,0.00202532
583.0000,0.0020403
582.5000,0.00203764
582.0000,0.00205615
581.5000,0.00207126
581.0000,0.00209646
580.5000,0.00208541
580.0000,0.00208284
579.5000,0.00209274
579.0000,0.00211374
578.5000,0.00210502
578.0000,0.00212896
577.5000,0.00217011
577.0000,0.00217027
576.5000,0.00219193
576.0000,0.00223443
575.5000,0.00228254
575.0000,0.00228015
574.5000,0.0023329
574.0000,0.00234605
573.5000,0.00234533
573.0000,0.00238257
572.5000,0.00245072
572.0000,0.00248059
571.5000,0.00247793
571.0000,0.00251052
570.5000,0.00250404
570.0000,0.00250959
569.5000,0.00252927
569.0000,0.00251754
568.5000,0.00250731
568.0000,0.00250552
567.5000,0.00254261
567.0000,0.0025416
566.5000,0.00259442
566.0000,0.00262138
565.5000,0.00264101
565.0000,0.00267071
564.5000,0.00270199
564.0000,0.00273534
563.5000,0.00276367
563.0000,0.00280119
562.5000,0.00281343
562.0000,0.00283354
561.5000,0.00285862
561.0000,0.0028821
560.5000,0.00291311
560.0000,0.0029015
559.5000,0.00293125
559.0000,0.00293423
558.5000,0.00292649
558.0000,0.00293954
557.5000,0.00295458
557.0000,0.00297563
556.5000,0.0029723
556.0000,0.00299234
555.5000,0.00299114
555.0000,0.00302881
554.5000,0.00306861
554.0000,0.00308913
553.5000,0.00307318
553.0000,0.00307745
552.5000,0.00307867
552.0000,0.00312019
551.5000,0.00312326
551.0000,0.0031546
550.5000,0.00317159
550.0000,0.00321498
549.5000,0.00324894
549.0000,0.00330951
548.5000,0.00334113
548.0000,0.00338156
547.5000,0.00342701
547.0000,0.00344839
546.5000,0.00348057
546.0000,0.00348986
545.5000,0.00357193
545.0000,0.0035733
544.5000,0.00361578
544.0000,0.00361437
543.5000,0.00361353
543.0000,0.00361504
542.5000,0.00368281
542.0000,0.00368935
541.5000,0.00367046
541.0000,0.00371293
540.5000,0.00374601
540.0000,0.00379869
539.5000,0.00384187
539.0000,0.00389125
538.5000,0.0038828
538.0000,0.00390707
537.5000,0.00392833
537.0000,0.00395564
536.5000,0.00400101
536.0000,0.00403606
535.5000,0.00406902
535.0000,0.004096
534.5000,0.00409849
534.0000,0.00415021
533.5000,0.00418073
533.0000,0.00421031
532.5000,0.00422669
532.0000,0.0042314
531.5000,0.0042624
531.0000,0.00429761
530.5000,0.00433736
530.0000,0.00437122
529.5000,0.00439027
529.0000,0.00442689
528.5000,0.00443478
528.0000,0.00446274
527.5000,0.0044574
527.0000,0.00449332
526.5000,0.00455256
526.0000,0.00457655
525.5000,0.00462589
525.0000,0.00462815
524.5000,0.0046664
524.0000,0.00471416
523.5000,0.00477484
523.0000,0.00479983
522.5000,0.0048107
522.0000,0.00481888
521.5000,0.00481995
521.0000,0.00486086
520.5000,0.00490082
520.0000,0.00502117
519.5000,0.00504614
519.0000,0.00512592
518.5000,0.00516303
518.0000,0.00516975
517.5000,0.00519324
517.0000,0.00523091
516.5000,0.00527774
516.0000,0.00530815
515.5000,0.00533822
515.0000,0.00533107
514.5000,0.00539316
514.0000,0.00543113
513.5000,0.00543416
513.0000,0.00548231
512.5000,0.00552641
512.0000,0.00556331
511.5000,0.00560383
511.0000,0.00562306
510.5000,0.00559252
510.0000,0.00562778
509.5000,0.00567147
509.0000,0.00569376
508.5000,0.00569623
508.0000,0.00570605
507.5000,0.00575202
507.0000,0.0057754
506.5000,0.00583774
506.0000,0.00585489
505.5000,0.0059056
505.0000,0.00591757
504.5000,0.00596357
504.0000,0.00601327
503.5000,0.00602522
503.0000,0.00612131
502.5000,0.00616063
502.0000,0.00620061
501.5000,0.00627541
501.0000,0.00634287
500.5000,0.00639909
500.0000,0.00641305
499.5000,0.00649469
499.0000,0.006523
498.5000,0.00656674
498.0000,0.00661931
497.5000,0.00659626
497.0000,0.0066251
496.5000,0.00666846
496.0000,0.00672226
495.5000,0.00671675
495.0000,0.00673818
494.5000,0.00675518
494.0000,0.00677633
493.5000,0.00681627
493.0000,0.00683514
492.5000,0.0068469
492.0000,0.00687708
491.5000,0.00691773
491.0000,0.00693561
490.5000,0.00701184
490.0000,0.00703547
489.5000,0.00708606
489.0000,0.00716984
488.5000,0.00723263
488.0000,0.00726853
487.5000,0.00731164
487.0000,0.00735667
486.5000,0.00738871
486.0000,0.00744297
485.5000,0.00748316
485.0000,0.00747764
484.5000,0.00749856
484.0000,0.00756509
483.5000,0.00759655
483.0000,0.00762329
482.5000,0.00764307
482.0000,0.00767747
481.5000,0.00769185
481.0000,0.00772797
480.5000,0.00777264
480.0000,0.00777499
479.5000,0.00780492
479.0000,0.00785552
478.5000,0.0078808
478.0000,0.00790246
477.5000,0.00796766
477.0000,0.00802264
476.5000,0.00804235
476.0000,0.00806782
475.5000,0.00808185
475.0000,0.00811688
474.5000,0.00814444
474.0000,0.00817161
473.5000,0.00818438
473.0000,0.0081877
472.5000,0.0081931
472.0000,0.00823889
471.5000,0.00828556
471.0000,0.0082842
470.5000,0.00836343
470.0000,0.00839417
469.5000,0.00842248
469.0000,0.00846693
468.5000,0.00850404
468.0000,0.00850437
467.5000,0.0085334
467.0000,0.0085688
466.5000,0.00854485
466.0000,0.00855882
465.5000,0.00858212
465.0000,0.00858671
464.5000,0.00862097
464.0000,0.00864242
463.5000,0.00864317
463.0000,0.00865201
462.5000,0.00866062
462.0000,0.00869306
461.5000,0.00868973
461.0000,0.00872778
460.5000,0.0087151
460.0000,0.00872382
459.5000,0.0087571
459.0000,0.00879103
458.5000,0.00880897
458.0000,0.00884291
457.5000,0.00887027
457.0000,0.00884743
456.5000,0.00890248
456.0000,0.00895292
455.5000,0.00895391
455.0000,0.00895139
454.5000,0.00894925
454.0000,0.008951
453.5000,0.00896591
453.0000,0.00898915
452.5000,0.00899765
452.0000,0.0089697
451.5000,0.00895304
451.0000,0.00898977
450.5000,0.00900552
450.0000,0.00898985
449.5000,0.0089735
449.0000,0.00897719
448.5000,0.00895038
448.0000,0.00896527
447.5000,0.00895688
447.0000,0.00892233
446.5000,0.00892424
446.0000,0.00888755
445.5000,0.00890823
445.0000,0.00891417
444.5000,0.00891184
444.0000,0.00892436
443.5000,0.00895459
443.0000,0.00894857
442.5000,0.00893686
442.0000,0.00896481
441.5000,0.00892598
441.0000,0.00887688
440.5000,0.00884932
440.0000,0.00877466
439.5000,0.00872856
439.0000,0.00869974
438.5000,0.00870163
438.0000,0.00868528
437.5000,0.00871419
437.0000,0.00873226
436.5000,0.00873379
436.0000,0.00878006
435.5000,0.00881366
435.0000,0.00878881
434.5000,0.00877546
434.0000,0.00876124
433.5000,0.00871662
433.0000,0.00867018
432.5000,0.00863476
432.0000,0.0085869
431.5000,0.0085263
431.0000,0.00851923
430.5000,0.00848083
430.0000,0.00843185
429.5000,0.00837197
429.0000,0.00839994
428.5000,0.00836676
428.0000,0.00835263
427.5000,0.00833044
427.0000,0.00830794
426.5000,0.00828762
426.0000,0.00826149
425.5000,0.00825636
425.0000,0.00820314
424.5000,0.00821977
424.0000,0.00817903
423.5000,0.00817714
423.0000,0.00815227
422.5000,0.00813541
422.0000,0.0080931
421.5000,0.00806607
421.0000,0.00802225
420.5000,0.00800993
420.0000,0.00806683
419.5000,0.00799836
419.0000,0.00794051
418.5000,0.00788078
418.0000,0.00786418
417.5000,0.00784462
417.0000,0.00778973
416.5000,0.00775181
416.0000,0.00779752
415.5000,0.00784536
415.0000,0.0077944
414.5000,0.00773067
414.0000,0.00765745
413.5000,0.00765272
413.0000,0.00765023
412.5000,0.00752682
412.0000,0.00743657
411.5000,0.00737606
411.0000,0.0073623
410.5000,0.00728205
410.0000,0.00727204
409.5000,0.00721514
409.0000,0.00716449
408.5000,0.00716916
408.0000,0.00715988
407.5000,0.00712409
407.0000,0.00708393
406.5000,0.0070615
406.0000,0.00700818
405.5000,0.00697312
405.0000,0.00695133
404.5000,0.00699274
404.0000,0.00696122
403.5000,0.00688757
403.0000,0.00688347
402.5000,0.00688103
402.0000,0.00691694
401.5000,0.00692344
401.0000,0.00689388
400.5000,0.00680254
400.0000,0.00676925
399.5000,0.00675317
399.0000,0.00666632
398.5000,0.00661773
398.0000,0.00647173
397.5000,0.00635733
397.0000,0.00629498
396.5000,0.00629902
396.0000,0.00628876
395.5000,0.00627278
395.0000,0.00630474
394.5000,0.0062965
394.0000,0.00637557
393.5000,0.006413
393.0000,0.00643847
392.5000,0.00637924
392.0000,0.00629026
391.5000,0.00627142
391.0000,0.00616837
390.5000,0.0061339
390.0000,0.00611887
389.5000,0.00611327
389.0000,0.00607393
388.5000,0.00606215
388.0000,0.00611651
387.5000,0.00611948
387.0000,0.00619566
386.5000,0.006235
386.0000,0.00617061
385.5000,0.00610543
385.0000,0.00605481
384.5000,0.00604578
384.0000,0.00595377
383.5000,0.00588469
383.0000,0.00582141
382.5000,0.0057607
382.0000,0.00581471
381.5000,0.00580392
381.0000,0.00582578
380.5000,0.00576919
380.0000,0.00580912
379.5000,0.00581732
379.0000,0.00581496
378.5000,0.00576442
378.0000,0.00569343
377.5000,0.005651
377.0000,0.00559952
376.5000,0.00562919
376.0000,0.0056284
375.5000,0.00562882
375.0000,0.00559099
374.5000,0.00560338
374.0000,0.00563057
373.5000,0.00565834
373.0000,0.00564784
372.5000,0.00565223
372.0000,0.00565405
371.5000,0.0055968
371.0000,0.0056144
370.5000,0.00557328
370.0000,0.00563307
369.5000,0.00566505
369.0000,0.00558055
368.5000,0.00554835
368.0000,0.00559423
367.5000,0.00550828
367.0000,0.00547856
366.5000,0.00547587
366.0000,0.00558
365.5000,0.00564158
365.0000,0.00574899
364.5000,0.00575767
364.0000,0.00580839
363.5000,0.00584336
363.0000,0.0058334
362.5000,0.00583041
362.0000,0.00583406
361.5000,0.0058126
361.0000,0.00574214
360.5000,0.00571289
360.0000,0.00565479
359.5000,0.00568499
359.0000,0.00579106
358.5000,0.00577635
358.0000,0.00577433
357.5000,0.00576325
357.0000,0.00585645
356.5000,0.00587513
356.0000,0.0058636
355.5000,0.00588068
355.0000,0.0057988
354.5000,0.00579631
354.0000,0.00584621
353.5000,0.00587413
353.0000,0.00586271
352.5000,0.00600464
352.0000,0.00605475
351.5000,0.00604363
351.0000,0.00614128
350.5000,0.00627626
350.0000,0.0062829
349.5000,0.00631846
349.0000,0.00636081
348.5000,0.00625826
348.0000,0.00636555
347.5000,0.00647645
347.0000,0.00653497
346.5000,0.00647739
346.0000,0.00650866
345.5000,0.00657185
345.0000,0.00662386
344.5000,0.00668574
344.0000,0.00670603
343.5000,0.00673547
343.0000,0.00677871
342.5000,0.00690347
342.0000,0.00695557
341.5000,0.00699357
341.0000,0.00708473
340.5000,0.00712271
340.0000,0.00704051
339.5000,0.00740678
339.0000,0.00774518
338.5000,0.0078064
338.0000,0.00709547
337.5000,0.00705712
337.0000,0.00745815
336.5000,0.00807673
336.0000,0.00785582
335.5000,0.0083134
335.0000,0.00837931
334.5000,0.00795969
334.0000,0.00837353
333.5000,0.00868661
333.0000,0.00791367
332.5000,0.00823108
332.0000,0.00857791
331.5000,0.00782325
331.0000,0.00758081
330.5000,0.00771454
330.0000,0.00742121
329.5000,0.00718754
329.0000,0.00764474
328.5000,0.00688167
328.0000,0.00712281
327.5000,0.00770517
327.0000,0.00771972
326.5000,0.0078591
326.0000,0.00862224
325.5000,0.0085219
325.0000,0.0090156
324.5000,0.00936639
324.0000,0.00958416
323.5000,0.00954816
323.0000,0.0101548
322.5000,0.0111501
322.0000,0.0109551
321.5000,0.0118609
321.0000,0.0119096
320.5000,0.011964
320.0000,0.0117263
319.5000,0.0124461
319.0000,0.0121598
318.5000,0.0113835
318.0000,0.0122224
317.5000,0.0117192
317.0000,0.0119012
316.5000,0.0122841
316.0000,0.0123827
315.5000,0.0121746
315.0000,0.0123979
314.5000,0.0125134
314.0000,0.0117489
313.5000,0.0119606
313.0000,0.0119178
312.5000,0.0121944
312.0000,0.0125942
311.5000,0.0126661
311.0000,0.0131019
310.5000,0.0140431
310.0000,0.0139332
309.5000,0.0142845
309.0000,0.0149453
308.5000,0.0150792
308.0000,0.0143572
307.5000,0.0143943
307.0000,0.0145986
306.5000,0.0144843
306.0000,0.0151769
305.5000,0.0151987
305.0000,0.0150508
304.5000,0.0154852
304.0000,0.016853
303.5000,0.0173314
303.0000,0.0173262
302.5000,0.0177642
302.0000,0.0176906
301.5000,0.0182749
301.0000,0.0184231
300.5000,0.0185141
300.0000,0.0188005

##### Extended Information
[Comments]
Sample name
Comment
User
Division
Company,Glasgow University

[Detailed Information]
Creation date,13/05/2022 18:31

Data array type,Linear data array
Horizontal axis,Wavelength [nm]
Vertical axis,Abs
Start,850 nm
End,300 nm
Data interval,0.5 nm
Data points,1101    

[Measurement Information]
Instrument name,Jasco V-670
Model name,V-670
Serial No.,A007061154

Measurement date,13/05/2022 18:31

Photometric mode,Abs
Measurement range,850 - 300 nm
Data interval,0.5 nm
UV/Vis bandwidth,2.0 nm
NIR bandwidth,8.0 nm
Response,Fast
Scan speed,1000 nm/min
Change source at,340 nm
Change grating at,850 nm
Light source,D2/WI
Filter exchange,Step
Correction,Baseline

